Comment:    Automatically converted from EXFOR
            by the IAEA-NDS EXFOR Web-Retrieval System
            program version-2015/02/20, by V.Zerkin.
            "A Study of Nuclear Levels in 32S by the Reaction
             28Si(alpha,alpha)28Si and Single Particle Potential
             Representation"
            M.K.Leung
            EXFOR: C2100009    Created: 2014-04-14  Updated: 2014-11-13
            X4Reaction:14-SI-28(A,EL)14-SI-28,,DA; X4Points:717
            LevelEnergy: 0.00

Version:      R33
X4Number:     C2100009
Source:       M.K.Leung(1972), Thes. Thesis or dissertation, Name.Leung
Reaction:     28Si(a,a0)28Si
Distribution: Energy
Sigfactors:   1.00, 0.00
Enfactors:    1.00, 0.00, 0.00, 0.00
Units:        mb
Composition:
Masses:       4.0, 28.0, 4.0, 28.0
Zeds:         2, 14, 2, 14
Qvalue:       0.0, 0.00, 0.00, 0.00, 0.00
Theta:        135
Data:
 2492.00,     0.00,  308.636,   21.296
 2493.00,     0.00,  320.463,   22.112
 2499.00,     0.00,  319.503,   22.046
 2504.00,     0.00,  312.628,   21.571
 2507.00,     0.00,  319.534,   22.048
 2512.00,     0.00,  309.703,    21.37
 2518.00,     0.00,  316.624,   21.847
 2523.00,     0.00,  310.734,   21.441
 2524.00,     0.00,  304.828,   21.033
 2529.00,     0.00,  294.012,   20.287
 2534.00,     0.00,  296.988,   20.492
 2539.00,     0.00,  291.097,   20.086
 2545.00,     0.00,  290.137,   20.019
 2550.00,     0.00,  286.217,   19.749
 2555.00,     0.00,  292.149,   20.158
 2558.00,     0.00,  281.327,   19.412
 2566.00,     0.00,  273.476,    18.87
 2573.00,     0.00,  272.522,   18.804
 2578.00,     0.00,  269.587,   18.602
 2583.00,     0.00,  275.518,   19.011
 2589.00,     0.00,  269.633,   18.605
 2594.00,     0.00,   278.52,   19.218
 2601.00,     0.00,  272.639,   18.812
 2607.00,     0.00,  263.798,   18.202
 2612.00,     0.00,  270.715,   18.679
 2616.00,     0.00,  271.716,   18.748
 2622.00,     0.00,   265.83,   18.342
 2623.00,     0.00,  271.746,    18.75
 2625.00,     0.00,  255.994,   17.664
 2629.00,     0.00,  276.698,   19.092
 2640.00,     0.00,  274.773,   18.959
 2644.00,     0.00,  260.996,   18.009
 2652.00,     0.00,   249.21,   17.195
 2662.00,     0.00,  260.088,   17.946
 2668.00,     0.00,   242.38,   16.724
 2673.00,     0.00,  233.534,   16.114
 2674.00,     0.00,  249.302,   17.202
 2680.00,     0.00,  242.431,   16.728
 2691.00,     0.00,  240.507,   16.595
 2700.00,     0.00,  237.587,   16.394
 2707.00,     0.00,  237.618,   16.396
 2723.00,     0.00,  226.848,   15.653
 2729.00,     0.00,  231.799,   15.994
 2734.00,     0.00,  220.983,   15.248
 2736.00,     0.00,  216.062,   14.908
 2739.00,     0.00,  222.973,   15.385
 2746.00,     0.00,  223.004,   15.387
 2751.00,     0.00,  228.935,   15.797
 2757.00,     0.00,   223.05,    15.39
 2762.00,     0.00,  218.145,   15.052
 2765.00,     0.00,  223.081,   15.393
 2771.00,     0.00,  226.062,   15.598
 2779.00,     0.00,  230.038,   15.873
 2788.00,     0.00,  227.118,   15.671
 2793.00,     0.00,  227.139,   15.673
 2801.00,     0.00,   226.19,   15.607
 2810.00,     0.00,  228.196,   15.746
 2814.00,     0.00,  215.404,   14.863
 2818.00,     0.00,  231.187,   15.952
 2822.00,     0.00,  227.262,   15.681
 2826.00,     0.00,  224.321,   15.478
 2832.00,     0.00,  222.377,   15.344
 2834.00,     0.00,  207.609,   14.325
 2837.00,     0.00,  217.471,   15.005
 2839.00,     0.00,   211.57,   14.598
 2845.00,     0.00,  210.611,   14.532
 2850.00,     0.00,  205.705,   14.194
 2853.00,     0.00,  210.641,   14.534
 2858.00,     0.00,  209.677,   14.468
 2860.00,     0.00,  214.613,   14.808
 2867.00,     0.00,  209.718,   14.471
 2877.00,     0.00,  204.833,   14.133
 2925.00,     0.00,  182.373,   12.584
 2932.00,     0.00,  183.389,   12.654
 2939.00,     0.00,  184.405,   12.724
 2944.00,     0.00,  193.292,   13.337
 2950.00,     0.00,  197.258,   13.611
 2955.00,     0.00,  202.204,   13.952
 2961.00,     0.00,  198.289,   13.682
 2972.00,     0.00,  194.394,   13.413
 2976.00,     0.00,  180.617,   12.463
 2985.00,     0.00,  176.713,   12.193
 2989.00,     0.00,  180.674,   12.467
 2997.00,     0.00,  179.719,   12.401
 3002.00,     0.00,  174.814,   12.062
 3009.00,     0.00,  173.859,   11.996
 3014.00,     0.00,   173.88,   11.998
 3024.00,     0.00,  181.802,   12.544
 3027.00,     0.00,  172.951,   11.934
 3035.00,     0.00,  180.863,    12.48
 3041.00,     0.00,  177.933,   12.277
 3047.00,     0.00,  171.062,   11.803
 3050.00,     0.00,  176.003,   12.144
 3055.00,     0.00,   184.89,   12.757
 3063.00,     0.00,   180.98,   12.488
 3066.00,     0.00,  175.085,   12.081
 3072.00,     0.00,  178.066,   12.287
 3073.00,     0.00,  168.214,   11.607
 3080.00,     0.00,  179.081,   12.357
 3085.00,     0.00,  179.102,   12.358
 3086.00,     0.00,  173.196,   11.951
 3091.00,     0.00, 174.2015,  19.3925
 3098.00,     0.00,  164.381,   11.342
 3102.00,     0.00,  168.337,   11.615
 3105.00,     0.00,  164.411,   11.344
 3109.00,     0.00,  172.308,   11.889
 3118.00,     0.00,  167.418,   11.552
 3120.00,     0.00,  175.309,   12.096
 3125.00,     0.00,  174.345,    12.03
 3133.00,     0.00,  177.336,   12.236
 3141.00,     0.00,  171.456,   19.202
 3146.00,     0.00,  167.535,    11.56
 3149.00,     0.00,  160.655,   11.085
 3154.00,     0.00,  162.645,   11.223
 3160.00,     0.00,  167.597,   11.564
 3165.00,     0.00,  164.662,   11.362
 3169.00,     0.00,  169.603,   11.703
 3172.00,     0.00,  176.514,   12.179
 3176.00,     0.00,  172.589,   11.909
 3182.00,     0.00,  176.555,   12.182
 3186.00,     0.00,  154.897,   10.688
 3190.00,     0.00,  161.808,   11.165
 3195.00,     0.00,  155.918,   10.758
 3201.00,     0.00,  157.914,   10.896
 3207.00,     0.00,  158.924,   10.966
 3215.00,     0.00,  162.901,    11.24
 3220.00,     0.00,  163.907,    11.31
 3229.00,     0.00,  183.646,   12.672
 3231.00,     0.00,  173.804,   11.992
 3235.00,     0.00,   175.79,    12.13
 3240.00,     0.00,  182.706,   12.607
 3246.00,     0.00,  175.836,   12.133
 3248.00,     0.00,  171.905,   11.861
 3254.00,     0.00,  176.857,   12.203
 3260.00,     0.00,  169.001,   11.661
 3274.00,     0.00,  170.042,   11.733
 3277.00,     0.00,  162.176,    11.19
 3290.00,     0.00,  165.183,   11.398
 3298.00,     0.00,  162.263,   11.196
 3304.00,     0.00,  156.378,    10.79
 3313.00,     0.00,  155.428,   10.725
 3323.00,     0.00,  160.395,   11.067
 3331.00,     0.00,  162.401,   11.206
 3334.00,     0.00,  157.486,   10.867
 3343.00,     0.00,  160.482,   11.073
 3347.00,     0.00,  166.408,   11.482
 3352.00,     0.00,  157.562,   10.872
 3363.00,     0.00,  156.623,   10.807
 3371.00,     0.00,  149.763,   10.334
 3376.00,     0.00,  153.724,   10.607
 3379.00,     0.00,  159.645,   11.016
 3384.00,     0.00,  149.814,   10.337
 3390.00,     0.00,  157.721,   10.883
 3396.00,     0.00,   152.82,   10.545
 3406.00,     0.00,  148.921,   10.276
 3410.00,     0.00,  155.837,   10.753
 3421.00,     0.00,  156.868,   10.824
 3424.00,     0.00,  151.953,   10.485
 3430.00,     0.00,  154.934,    10.69
 3445.00,     0.00,   155.98,   10.763
 3453.00,     0.00,   147.15,   10.153
 3465.00,     0.00,  148.186,   10.225
 3476.00,     0.00,  147.247,    10.16
 3487.00,     0.00,  147.293,   10.163
 3497.00,     0.00,  146.348,   10.098
 3506.00,     0.00,  143.429,   9.8966
 3512.00,     0.00,  137.543,   9.4905
 3518.00,     0.00,  144.465,   9.9681
 3523.00,     0.00,  136.604,   9.4257
 3530.00,     0.00,  143.531,   9.9036
 3539.00,     0.00,  143.567,   9.9061
 3548.00,     0.00,  134.741,   9.2971
 3555.00,     0.00,  136.737,   9.4349
 3564.00,     0.00,  135.793,   9.3697
 3575.00,     0.00,  137.809,   9.5088
 3590.00,     0.00,  140.826,    9.717
 3598.00,     0.00,  134.951,   9.3116
 3608.00,     0.00,  134.006,   9.2464
 3611.00,     0.00,  137.957,    9.519
 3617.00,     0.00,  134.042,   9.2489
 3622.00,     0.00,  131.107,   9.0464
 3630.00,     0.00,  131.143,   9.0489
 3639.00,     0.00,  127.238,   8.7794
 3646.00,     0.00,  134.165,   9.2574
 3652.00,     0.00,  129.264,   8.9192
 3661.00,     0.00,  128.315,   8.8537
 3666.00,     0.00,  131.291,   9.0591
 3675.00,     0.00,  130.347,   8.9939
 3689.00,     0.00,  133.358,   9.2017
 3695.00,     0.00,  133.384,   9.2035
 3696.00,     0.00,  126.493,    8.728
 3705.00,     0.00,  125.544,   8.6625
 3714.00,     0.00,   128.54,   8.8693
 3730.00,     0.00,  127.621,   8.8059
 3734.00,     0.00,  119.755,   8.2631
 3746.00,     0.00,  125.717,   8.6745
 3756.00,     0.00,  121.817,   8.4054
 3763.00,     0.00,  121.848,   8.4075
 3769.00,     0.00,  125.814,   8.6812
 3777.00,     0.00,  117.964,   8.1395
 3783.00,     0.00,  117.989,   8.1412
 3796.00,     0.00,   115.09,   7.9412
 3810.00,     0.00,  118.102,    8.149
 3817.00,     0.00,  118.132,   8.1511
 3827.00,     0.00,  113.247,    7.814
 3836.00,     0.00,  112.303,   7.7489
 3846.00,     0.00,  108.403,   7.4798
 3850.00,     0.00,   93.641,   6.4612
 3859.00,     0.00,   76.929,   5.3081
 3865.00,     0.00,   69.566,  15.8578
 3871.00,     0.00,  109.491,   7.5549
 3873.00,     0.00,  119.353,   8.2354
 3879.00,     0.00,  122.334,    8.441
 3890.00,     0.00,   126.32,   8.7161
 3903.00,     0.00,  126.377,     8.72
 3922.00,     0.00,  120.542,   8.3174
 3936.00,     0.00,  114.692,   7.9137
 3944.00,     0.00,  105.857,   7.3041
 3951.00,     0.00,   98.006,   6.7624
 3957.00,     0.00,  100.987,   6.9681
 3966.00,     0.00,  101.023,   6.9706
 3974.00,     0.00,   98.103,   6.7691
 3976.00,     0.00,  101.064,   6.9734
 3985.00,     0.00,   95.194,   6.5684
 3996.00,     0.00,   94.254,   6.5035
 4000.00,     0.00,   86.388,   5.9608
 4009.00,     0.00,  100.217,    6.915
 4012.00,     0.00,  101.217,    6.984
 4017.00,     0.00,   98.282,   6.7815
 4023.00,     0.00,  101.263,   6.9871
 4032.00,     0.00,  103.269,   7.1256
 4034.00,     0.00,  116.993,   8.0725
 4038.00,     0.00,  105.155,   7.2557
 4042.00,     0.00,  106.278,   7.3332
 4046.00,     0.00,  108.168,   7.4636
 4052.00,     0.00,  106.999,   7.3829
 4055.00,     0.00,  107.368,   7.4084
 4057.00,     0.00,  103.928,    7.171
 4059.00,     0.00,  108.495,   7.4862
 4061.00,     0.00,  107.343,   7.4067
 4064.00,     0.00,  104.661,   7.2216
 4066.00,     0.00,  108.084,   7.4578
 4069.00,     0.00,  107.309,   7.4043
 4070.00,     0.00,  104.631,   7.2195
 4073.00,     0.00,  100.043,    6.903
 4075.00,     0.00,   94.696,    6.534
 4076.00,     0.00,   97.361,   6.7179
 4080.00,     0.00,   99.251,   6.8483
 4083.00,     0.00,  100.001,   6.9001
 4086.00,     0.00,  101.895,   7.0308
 4091.00,     0.00,  101.874,   7.0293
 4094.00,     0.00,   99.951,   6.8966
 4099.00,     0.00,   98.786,   6.8162
 4104.00,     0.00,  100.671,   6.9463
 4108.00,     0.00,   97.604,   6.7347
 4112.00,     0.00,   97.587,   6.7335
 4116.00,     0.00,   96.808,   6.6798
 4121.00,     0.00,   97.164,   6.7043
 4126.00,     0.00,    99.05,   6.8345
 4129.00,     0.00,    97.13,    6.702
 4134.00,     0.00,   96.728,   6.6742
 4138.00,     0.00,   94.805,   6.5415
 4143.00,     0.00,   94.402,   6.5137
 4147.00,     0.00,   95.911,   6.6179
 4149.00,     0.00,   93.229,   6.4328
 4152.00,     0.00,   94.742,   6.5372
 4156.00,     0.00,   96.632,   6.6676
 4160.00,     0.00,  94.7085,   8.5729
 4165.00,     0.00,   94.687,   6.5334
 4169.00,     0.00,   88.188,    6.085
 4172.00,     0.00,   90.082,   6.2157
 4174.00,     0.00,   86.637,    5.978
 4175.00,     0.00,   89.684,   6.1882
 4179.00,     0.00,   90.811,    6.266
 4183.00,     0.00,   90.794,   6.2648
 4185.00,     0.00,   92.693,   6.3958
 4187.00,     0.00,   89.634,   6.1847
 4189.00,     0.00,   87.718,   6.0525
 4190.00,     0.00,   85.426,   5.8944
 4193.00,     0.00,   83.126,   5.7357
 4196.00,     0.00,  85.7825,   6.7341
 4201.00,     0.00,   86.906,   5.9965
 4205.00,     0.00,   88.791,   6.1266
 4208.00,     0.00,   86.872,   5.9942
 4211.00,     0.00,   88.766,   6.1249
 4213.00,     0.00,   85.326,   5.8875
 4216.00,     0.00,   87.601,   6.0445
 4220.00,     0.00,   85.678,   5.9118
 4224.00,     0.00,   85.661,   7.5408
 4225.00,     0.00,   80.699,   5.5682
 4228.00,     0.00,   83.352,   5.7513
 4231.00,     0.00,   81.433,   5.6189
 4232.00,     0.00,   79.522,    5.487
 4238.00,     0.00,   80.259,   5.5379
 4243.00,     0.00,   78.332,   5.4049
 4250.00,     0.00,   75.252,   5.1924
 4256.00,     0.00,   69.884,    4.822
 4267.00,     0.00,   59.923,   4.1347
 4274.00,     0.00,   60.652,    4.185
 4278.00,     0.00,   69.787,   4.8153
 4284.00,     0.00,   76.245,   5.2609
 4289.00,     0.00,   81.944,   5.6541
 4294.00,     0.00,   85.736,   5.9158
 4301.00,     0.00,   86.088,   5.9401
 4307.00,     0.00,   86.063,   5.9383
 4312.00,     0.00,   88.711,   6.1211
 4317.00,     0.00,   86.784,   5.9881
 4323.00,     0.00,   87.517,   6.0387
 4328.00,     0.00,   85.971,    5.932
 4335.00,     0.00,   88.992,   6.1404
 4340.00,     0.00,   87.827,   6.0601
 4346.00,     0.00,   88.565,    6.111
 4348.00,     0.00,    89.70,   6.1893
 4350.00,     0.00,   86.256,   5.9517
 4354.00,     0.00,   90.052,   6.2136
 4356.00,     0.00,   88.519,   6.1078
 4360.00,     0.00,   93.078,   6.4224
 4362.00,     0.00,   89.256,   6.1587
 4364.00,     0.00,   85.816,   5.9213
 4366.00,     0.00,   79.706,   5.4997
 4369.00,     0.00,   78.549,   5.4199
 4374.00,     0.00,   78.524,   5.4182
 4377.00,     0.00,   75.842,   5.2331
 4380.00,     0.00,   76.592,   5.2848
 4384.00,     0.00,   77.338,   5.3363
 4386.00,     0.00,   79.237,   5.4674
 4391.00,     0.00,   76.546,   5.2817
 4397.00,     0.00,   73.852,   5.0958
 4402.00,     0.00,   70.013,   4.8309
 4407.00,     0.00,   68.086,   4.6979
 4414.00,     0.00,   69.582,   4.8012
 4420.00,     0.00,   72.226,   4.9836
 4427.00,     0.00,   79.823,   5.5078
 4431.00,     0.00,   84.001,   5.7961
 4437.00,     0.00,    85.12,   5.8733
 4441.00,     0.00,   87.387,   6.0297
 4447.00,     0.00,   84.692,   5.8437
 4454.00,     0.00,   84.663,   5.8417
 4458.00,     0.00,   79.689,   5.4985
 4462.00,     0.00,   80.054,   5.5237
 4466.00,     0.00,   80.414,   5.5486
 4470.00,     0.00,   81.923,   5.6527
 4476.00,     0.00,   83.804,   5.7825
 4480.00,     0.00,   81.118,   5.5971
 4484.00,     0.00,   82.627,   5.7013
 4487.00,     0.00,   81.089,   5.5951
 4489.00,     0.00,    83.75,   5.7788
 4494.00,     0.00,   80.297,   5.5405
 4498.00,     0.00,   80.276,    5.539
 4504.00,     0.00,   79.869,    5.511
 4514.00,     0.00,   74.107,   5.1134
 4515.00,     0.00,   78.679,   5.4289
 4517.00,     0.00,    71.04,   4.9018
 4519.00,     0.00,   61.879,   4.2697
 4521.00,     0.00,    64.54,   4.4533
 4524.00,     0.00,   70.629,   4.8734
 4525.00,     0.00,   78.633,   5.4257
 4527.00,     0.00,    84.73,   5.8464
 4531.00,     0.00,   83.184,   5.7397
 4534.00,     0.00,   85.459,   5.8967
 4541.00,     0.00,   82.761,   5.7105
 4544.00,     0.00,   81.604,   5.6307
 4551.00,     0.00,   80.049,   5.5234
 4556.00,     0.00,   79.261,    5.469
 4558.00,     0.00,   76.965,   5.3106
 4566.00,     0.00,    79.22,   5.4662
 4572.00,     0.00,    75.00,    5.175
 4577.00,     0.00,   78.792,   5.4366
 4581.00,     0.00,   74.576,   5.1457
 4586.00,     0.00,   77.987,   5.3811
 4592.00,     0.00,   76.437,   5.2742
 4601.00,     0.00,   66.103,   4.5611
 4608.00,     0.00,   67.595,   4.6641
 4617.00,     0.00,   66.032,   4.5562
 4622.00,     0.00,   70.206,   4.8442
 4629.00,     0.00,   62.545,   4.3156
 4636.00,     0.00,   60.228,   4.1557
 4642.00,     0.00,   66.304,    4.575
 4652.00,     0.00,   64.356,   4.4406
 4657.00,     0.00,   60.136,   4.1494
 4664.00,     0.00,   59.725,    4.121
 4670.00,     0.00,   61.225,   4.2245
 4673.00,     0.00,   58.925,   4.0658
 4676.00,     0.00,   47.087,    3.249
 4677.00,     0.00,    50.90,   3.5121
 4680.00,     0.00,    41.35,   2.8532
 4684.00,     0.00,  32.9435,   4.3112
 4689.00,     0.00,   35.974,   2.4822
 4694.00,     0.00,   37.859,   2.6123
 4699.00,     0.00,   39.364,   2.7161
 4702.00,     0.00,   38.584,   2.6623
 4705.00,     0.00,   37.809,   2.6088
 4708.00,     0.00,   35.508,   2.4501
 4712.00,     0.00,   37.398,   2.5805
 4717.00,     0.00,   40.047,   2.7632
 4722.00,     0.00,   42.314,   2.9197
 4725.00,     0.00,    50.69,   3.4976
 4729.00,     0.00,   57.538,   3.9701
 4734.00,     0.00,   64.381,   4.4423
 4740.00,     0.00,   74.652,    5.151
 4746.00,     0.00,   74.245,   5.1229
 4750.00,     0.00,   79.567,   5.4901
 4754.00,     0.00,   79.932,   5.5153
 4760.00,     0.00,   79.906,   5.5135
 4764.00,     0.00,   84.084,   5.8018
 4768.00,     0.00,   85.207,   5.8793
 4778.00,     0.00,   80.971,    5.587
 4783.00,     0.00,   76.755,   5.2961
 4787.00,     0.00,   81.696,    5.637
 4792.00,     0.00,   79.005,   5.4513
 4800.00,     0.00,   78.968,   5.4488
 4812.00,     0.00,   75.104,   5.1822
 4820.00,     0.00,   73.541,   5.0743
 4830.00,     0.00,   74.643,   5.1504
 4840.00,     0.00,    71.55,    4.937
 4844.00,     0.00,   67.716,   4.6724
 4849.00,     0.00,    71.89,   4.9604
 4853.00,     0.00,    68.06,   4.6961
 4854.00,     0.00,    72.25,   4.9853
 4858.00,     0.00,   69.183,   4.7736
 4861.00,     0.00,   64.213,   4.4307
 4863.00,     0.00,   67.255,   4.6406
 4867.00,     0.00,   64.188,    4.429
 4871.00,     0.00,   66.459,   4.5857
 4873.00,     0.00,    64.54,   4.4533
 4876.00,     0.00,   62.239,   4.2945
 4877.00,     0.00,   57.278,   3.9522
 4880.00,     0.00,   59.172,   4.0829
 4881.00,     0.00,   61.455,   4.2404
 4884.00,     0.00,   65.447,    5.943
 4888.00,     0.00,   70.959,   4.8962
 4890.00,     0.00,   67.138,   4.6325
 4895.00,     0.00,  72.4555,   6.6302
 4896.00,     0.00,   77.027,   5.3149
 4900.00,     0.00,   74.341,   5.1295
 4901.00,     0.00,   70.142,   4.8398
 4905.00,     0.00,   72.795,   5.0229
 4907.00,     0.00,   75.074,   5.1801
 4909.00,     0.00,   72.393,   4.9951
 4911.00,     0.00,    71.24,   4.9156
 4915.00,     0.00,   72.367,   4.9933
 5200.00,     0.00,   59.834,   4.1285
 5205.00,     0.00,   57.325,   3.9554
 5208.00,     0.00,    57.99,   4.0013
 5212.00,     0.00,   56.902,   3.9262
 5216.00,     0.00,   55.804,   3.8505
 5219.00,     0.00,   57.881,   3.9938
 5222.00,     0.00,    55.75,   3.8468
 5223.00,     0.00,   55.732,   3.8455
 5226.00,     0.00,   53.601,   3.6985
 5229.00,     0.00,   55.326,   3.8175
 5231.00,     0.00,    56.00,    3.864
 5232.00,     0.00,   54.589,   3.7666
 5237.00,     0.00,   53.482,   3.6903
 5241.00,     0.00,    55.55,    3.833
 5245.00,     0.00,    53.05,   3.6605
 5248.00,     0.00,   55.126,   3.8037
 5251.00,     0.00,   54.398,   3.7535
 5253.00,     0.00,   52.968,   3.6548
 5256.00,     0.00,   55.395,   3.8223
 5259.00,     0.00,   55.709,   3.8439
 5262.00,     0.00,   57.961,    5.311
 5266.00,     0.00,   57.399,   3.9605
 5267.00,     0.00,   56.329,   3.8867
 5270.00,     0.00,    55.25,   3.8123
 5272.00,     0.00,   56.985,    3.932
 5275.00,     0.00,   56.598,   3.9053
 5276.00,     0.00,   59.394,   4.0982
 5279.00,     0.00,   61.119,   4.2172
 5283.00,     0.00,   58.979,   4.0696
 5285.00,     0.00,   62.467,   4.3102
 5287.00,     0.00,   58.934,   4.0664
 5289.00,     0.00,   61.721,   4.2588
 5291.00,     0.00,   61.001,   4.2091
 5295.00,     0.00,   62.008,   4.2786
 5298.00,     0.00,   60.227,   4.1557
 5300.00,     0.00,   55.992,   3.8634
 5304.00,     0.00,   60.164,   4.1513
 5307.00,     0.00,   59.075,   4.0762
 5310.00,     0.00,   59.749,   4.1227
 5312.00,     0.00,   60.432,   4.1698
 5314.00,     0.00,   59.713,   4.1202
 5316.00,     0.00,   59.335,   4.0941
 5319.00,     0.00,   60.009,   4.1406
 5323.00,     0.00,   55.756,   3.8472
 5326.00,     0.00,   55.378,   3.8211
 5330.00,     0.00,   54.281,   3.7454
 5333.00,     0.00,   54.244,   3.7428
 5338.00,     0.00,   53.848,   3.7155
 5340.00,     0.00,   56.986,    3.932
 5342.00,     0.00,   54.504,   3.7608
 5345.00,     0.00,   55.879,   3.8557
 5347.00,     0.00,   54.809,   3.7818
 5351.00,     0.00,   56.166,   3.8755
 5354.00,     0.00,   57.191,   3.9462
 5357.00,     0.00,   57.514,   3.9685
 5360.00,     0.00,   59.932,   4.1353
 5363.00,     0.00,   56.749,   3.9157
 5364.00,     0.00,   60.948,   4.2054
 5367.00,     0.00,   61.972,   4.2761
 5369.00,     0.00,   60.192,   4.1532
 5372.00,     0.00,   59.463,   4.1029
 5374.00,     0.00,   63.302,   4.3678
 5375.00,     0.00,   59.778,   4.1247
 5377.00,     0.00,    53.79,   3.7115
 5378.00,     0.00,   48.521,    3.348
 5382.00,     0.00,    27.43,   1.8927
 5385.00,     0.00,   33.363,    2.302
 5386.00,     0.00,  41.0675,   5.0823
 5389.00,     0.00,   47.711,   3.2921
 5390.00,     0.00,   49.095,   3.3876
 5392.00,     0.00,   52.934,   3.6524
 5395.00,     0.00,   55.712,   3.8441
 5396.00,     0.00,   53.949,   3.7225
 5400.00,     0.00,   56.017,   3.8652
 5401.00,     0.00,    57.06,   3.9371
 5403.00,     0.00,   60.898,    4.202
 5404.00,     0.00,   62.642,   4.3223
 5406.00,     0.00,   64.728,   4.4662
 5408.00,     0.00,   55.935,   3.8595
 5409.00,     0.00,   52.761,   3.6405
 5410.00,     0.00,    45.38,   3.1312
 5412.00,     0.00,   36.246,    2.501
 5413.00,     0.00,   23.605,   1.6287
 5414.00,     0.00,    25.70,   1.7733
 5415.00,     0.00,  34.1055,   8.3498
 5416.00,     0.00,  36.3755,   4.1963
 5417.00,     0.00,   31.633,   2.1827
 5420.00,     0.00,   49.137,   3.3905
 5424.00,     0.00,   50.503,   3.4847
 5427.00,     0.00,   52.229,   3.6038
 5433.00,     0.00,   52.866,   3.6478
 5440.00,     0.00,   53.495,   3.6912
 5449.00,     0.00,   51.651,   3.5639
 5453.00,     0.00,   50.904,   3.5124
 5455.00,     0.00,   45.627,   3.1483
 5457.00,     0.00,   26.657,   1.8393
 5460.00,     0.00,   20.309,   1.4013
 5463.00,     0.00,   27.995,   1.9317
 5464.00,     0.00,   36.761,   2.5365
 5466.00,     0.00,   38.496,   2.6562
 5468.00,     0.00,   41.633,   2.8727
 5469.00,     0.00,   43.719,   3.0166
 5472.00,     0.00,   45.795,   3.1599
 5475.00,     0.00,   47.872,   3.3032
 5479.00,     0.00,   48.878,   3.3726
 5481.00,     0.00,   37.982,   2.6208
 5484.00,     0.00,   49.534,   3.4178
 5488.00,     0.00,    50.90,   3.5121
 5493.00,     0.00,   51.547,   3.5567
 5495.00,     0.00,   50.126,   3.4587
 5498.00,     0.00,   49.388,   3.4078
 5502.00,     0.00,   49.694,   3.4289
 5505.00,     0.00,   49.316,   3.4028
 5508.00,     0.00,   51.042,   3.5219
 5510.00,     0.00,   50.664,   3.4958
 5513.00,     0.00,   50.987,   3.5181
 5516.00,     0.00,   49.908,   3.4437
 5517.00,     0.00,   48.838,   3.3698
 5520.00,     0.00,   47.759,   3.2954
 5522.00,     0.00,   48.792,   3.3666
 5524.00,     0.00,   49.466,   3.4132
 5528.00,     0.00,   50.131,    3.459
 5531.00,     0.00,   47.991,   3.3114
 5533.00,     0.00,   49.375,   3.4069
 5537.00,     0.00,   46.534,   3.2108
 5539.00,     0.00,   47.559,   3.2816
 5543.00,     0.00,   47.873,   3.3032
 5545.00,     0.00,   47.144,   3.2529
 5548.00,     0.00,   46.416,   3.2027
 5552.00,     0.00,   46.379,   3.2002
 5554.00,     0.00,   47.053,   3.2467
 5558.00,     0.00,   45.965,   3.1716
 5560.00,     0.00,   43.133,   2.9762
 5564.00,     0.00,   43.798,   3.0221
 5566.00,     0.00,   44.472,   3.0686
 5568.00,     0.00,   45.856,   3.1641
 5572.00,     0.00,    45.82,   3.1616
 5573.00,     0.00,   48.265,   3.3303
 5577.00,     0.00,    48.57,   3.3513
 5580.00,     0.00,   49.945,   3.4462
 5583.00,     0.00,   53.074,   3.6621
 5585.00,     0.00,   51.994,   3.5876
 5589.00,     0.00,    53.01,   3.6577
 5590.00,     0.00,   54.403,   3.7538
 5593.00,     0.00,   53.675,   3.7036
 5596.00,     0.00,   53.288,   3.6769
 5597.00,     0.00,   57.136,   3.9424
 5603.00,     0.00,    56.73,   3.9144
 5607.00,     0.00,   56.685,   3.9113
 5612.00,     0.00,   55.929,   3.8591
 5618.00,     0.00,   55.866,   3.8548
 5623.00,     0.00,   56.171,   3.8758
 5627.00,     0.00,   56.826,    3.921
 5633.00,     0.00,   56.062,   3.8683
 5636.00,     0.00,   55.333,    3.818
 5638.00,     0.00,   53.562,   3.6958
 5644.00,     0.00,   53.849,   3.7156
 5648.00,     0.00,   53.102,    3.664
 5652.00,     0.00,   52.715,   3.6373
 5654.00,     0.00,   50.584,   3.4903
 5659.00,     0.00,   50.539,   3.4872
 5661.00,     0.00,    49.81,   3.4369
 5664.00,     0.00,   46.978,   3.2415
 5667.00,     0.00,   44.136,   3.0454
 5669.00,     0.00,   40.963,   2.8264
 5674.00,     0.00,   51.786,   3.5732
 5678.00,     0.00,   31.746,   2.1905
 5679.00,     0.00,   14.188,    0.979
 5681.00,     0.00,   22.935,   1.5825
 5685.00,     0.00,   39.738,   2.7419
 5687.00,     0.00,   52.702,   3.6364
 5689.00,     0.00,    61.80,   4.2642
 5695.00,     0.00,   62.087,    4.284
 5699.00,     0.00,    61.70,   4.2573
 5704.00,     0.00,   61.645,   4.2535
 5709.00,     0.00,    61.42,    5.555
 5713.00,     0.00,   58.749,   4.0537
 5715.00,     0.00,    57.32,   3.9551
 5717.00,     0.00,   60.106,   4.1473
 5720.00,     0.00,   61.131,    4.218
 5723.00,     0.00,   61.805,   4.2645
 5726.00,     0.00,    63.18,   4.3594
 5728.00,     0.00,   65.958,   4.5511
 5732.00,     0.00,    64.87,    4.476
 5735.00,     0.00,   63.781,   4.4009
 5740.00,     0.00,   67.943,   4.6881
 5743.00,     0.00,   68.617,   4.7346
 5745.00,     0.00,   72.105,   4.9752
 5746.00,     0.00,   84.017,   5.7972
 5750.00,     0.00,  138.364,   9.5471
 5752.00,     0.00,   96.936,   6.6886
 5755.00,     0.00,   64.984,   4.4839
 5758.00,     0.00,   55.481,   3.8282
 5762.00,     0.00,    58.24,   4.0186
 5765.00,     0.00,   55.759,   3.8474
 5768.00,     0.00,    60.64,   4.1842
 5769.00,     0.00,   58.518,   4.0377
 5772.00,     0.00,   60.244,   4.1568
 5775.00,     0.00,   60.217,    4.155
 5779.00,     0.00,   53.509,   3.6921
 5781.00,     0.00,   53.482,   3.6903
 5783.00,     0.00,   57.321,   3.9552
 5786.00,     0.00,    55.19,   3.8081
 5787.00,     0.00,   52.367,   3.6133
 5788.00,     0.00,   42.891,   2.9595
 5791.00,     0.00,   41.101,    2.836
 5797.00,     0.00,   34.376,   2.3719
 5800.00,     0.00,   15.397,   1.0624
 5801.00,     0.00,    8.717,   0.6015
 5805.00,     0.00,   18.156,   1.2528
 5808.00,     0.00,   22.687,   1.5654
 5810.00,     0.00,   30.383,   2.0964
 5812.00,     0.00,   27.901,   1.9252
 5814.00,     0.00,   39.112,   2.6987
 5819.00,     0.00,   43.624,   3.0101
 5823.00,     0.00,   46.033,   3.1763
 5827.00,     0.00,   49.152,   3.3915
 5831.00,     0.00,   51.921,   3.5826
 5834.00,     0.00,   56.452,   3.8952
 5836.00,     0.00,   52.568,   3.6272
 5839.00,     0.00,   52.181,   3.6005
 5841.00,     0.00,   54.266,   3.7444
 5844.00,     0.00,   55.291,   3.8151
 5846.00,     0.00,   55.623,    3.838
 5849.00,     0.00,   56.648,   3.9087
 5852.00,     0.00,   54.858,   3.7852
 5854.00,     0.00,   56.243,   3.8808
 5858.00,     0.00,   56.548,   3.9018
 5860.00,     0.00,   56.179,   3.8764
 5861.00,     0.00,   58.975,   4.0693
 5865.00,     0.00,   57.176,   3.9451
 5867.00,     0.00,   59.613,   4.1133
 5870.00,     0.00,   58.183,   4.0146
 5872.00,     0.00,   59.216,   4.0859
 5876.00,     0.00,   59.171,   4.0828
 5880.00,     0.00,   59.485,   4.1045
 5881.00,     0.00,   62.281,   4.2974
 5884.00,     0.00,   62.245,   4.2949
 5886.00,     0.00,   59.422,   4.1001
 5888.00,     0.00,   60.797,    4.195
 5892.00,     0.00,   61.111,   4.2167
 5895.00,     0.00,   59.331,   4.0938
 5896.00,     0.00,   60.715,   4.1893
 5899.00,     0.00,   60.337,   4.1633
 5902.00,     0.00,   58.557,   4.0404
 5905.00,     0.00,   60.975,   4.2073
 5911.00,     0.00,   59.859,   4.1303
 5916.00,     0.00,   59.463,   4.1029
 5918.00,     0.00,    62.25,   4.2953
 5921.00,     0.00,   58.707,   4.0508
 5924.00,     0.00,   59.732,   4.1215
 5927.00,     0.00,   57.592,   3.9738
 5930.00,     0.00,   58.266,   4.0204
 5931.00,     0.00,   55.793,   3.8497
 5935.00,     0.00,   55.757,   3.8472
 5937.00,     0.00,   53.635,   3.7008
 5940.00,     0.00,   50.794,   3.5048
 5942.00,     0.00,   45.507,     3.14
 5944.00,     0.00,   40.922,   2.8236
 5947.00,     0.00,   35.635,   2.4588
 5951.00,     0.00,   35.239,   2.4315
 5953.00,     0.00,   25.745,   1.7764
EndData:

