Comment:    Automatically converted from EXFOR
            by the IAEA-NDS EXFOR Web-Retrieval System
            program version-2015/02/20, by V.Zerkin.
            "A Study of Nuclear Levels in 32S by the Reaction
             28Si(alpha,alpha)28Si and Single Particle Potential
             Representation"
            M.K.Leung
            EXFOR: C2100010    Created: 2014-04-14  Updated: 2014-11-13
            X4Reaction:14-SI-28(A,EL)14-SI-28,,DA; X4Points:724
            LevelEnergy: 0.00

Version:      R33
X4Number:     C2100010
Source:       M.K.Leung(1972), Thes. Thesis or dissertation, Name.Leung
Reaction:     28Si(a,a0)28Si
Distribution: Energy
Sigfactors:   1.00, 0.00
Enfactors:    1.00, 0.00, 0.00, 0.00
Units:        mb
Composition:
Masses:       4.0, 28.0, 4.0, 28.0
Zeds:         2, 14, 2, 14
Qvalue:       0.0, 0.00, 0.00, 0.00, 0.00
Theta:        165
Data:
 2424.00,     0.00,  252.606,    17.43
 2435.00,     0.00,   249.05,   17.184
 2443.00,     0.00,  245.521,   16.941
 2447.00,     0.00,  254.141,   17.536
 2454.00,     0.00,   254.95,   17.592
 2461.00,     0.00,  258.357,   17.827
 2469.00,     0.00,  266.073,   18.359
 2492.00,     0.00, 248.5625,  23.6285
 2501.00,     0.00,   251.95,   17.385
 2508.00,     0.00,  257.954,   17.799
 2510.00,     0.00,   251.01,    17.32
 2513.00,     0.00,  239.728,   16.541
 2519.00,     0.00,  238.806,   16.478
 2523.00,     0.00,  232.718,   16.058
 2527.00,     0.00,  227.486,   15.697
 2530.00,     0.00,  223.129,   15.396
 2534.00,     0.00,  231.758,   15.991
 2537.00,     0.00,  229.999,    15.87
 2540.00,     0.00,  224.776,    15.51
 2543.00,     0.00,   226.48,   15.627
 2548.00,     0.00,  220.382,   15.206
 2552.00,     0.00,  216.882,   14.965
 2553.00,     0.00,   231.59,    15.98
 2558.00,     0.00,  214.238,   14.782
 2562.00,     0.00,  219.395,   15.138
 2568.00,     0.00,   215.01,   14.836
 2573.00,     0.00,  208.913,   14.415
 2579.00,     0.00,  211.454,    14.59
 2587.00,     0.00,  206.194,   14.227
 2590.00,     0.00,  214.823,   14.823
 2595.00,     0.00,  219.114,   15.119
 2598.00,     0.00,   206.10,   14.221
 2609.00,     0.00,  204.275,   14.095
 2612.00,     0.00,  208.575,   14.392
 2615.00,     0.00,  213.751,   14.749
 2623.00,     0.00,  209.347,   14.445
 2627.00,     0.00,  217.111,   14.981
 2633.00,     0.00,  210.995,   14.559
 2639.00,     0.00,  208.351,   14.376
 2643.00,     0.00,  197.059,   13.597
 2646.00,     0.00,  203.091,   14.013
 2650.00,     0.00,  196.993,   13.593
 2654.00,     0.00,  192.637,   13.292
 2661.00,     0.00,   196.90,   13.586
 2666.00,     0.00,  189.071,   13.046
 2670.00,     0.00,  183.839,   12.685
 2674.00,     0.00,  188.996,   13.041
 2678.00,     0.00,  184.639,    12.74
 2681.00,     0.00,  188.074,   12.977
 2689.00,     0.00,  181.949,   12.554
 2694.00,     0.00,  181.902,   12.551
 2699.00,     0.00,  184.461,   12.728
 2702.00,     0.00,  191.359,   13.204
 2707.00,     0.00,  185.252,   12.782
 2709.00,     0.00,  179.174,   12.363
 2715.00,     0.00,  178.261,    12.30
 2716.00,     0.00,  183.446,   12.658
 2721.00,     0.00,  178.205,   12.296
 2728.00,     0.00,  177.283,   12.233
 2733.00,     0.00,  169.445,   11.692
 2739.00,     0.00,  177.189,   12.226
 2742.00,     0.00,  172.833,   11.925
 2749.00,     0.00,  171.911,   11.862
 2756.00,     0.00,  174.442,   12.036
 2761.00,     0.00,  171.808,   11.855
 2764.00,     0.00,  175.242,   12.092
 2770.00,     0.00,  171.733,    11.85
 2772.00,     0.00,  176.042,   12.147
 2780.00,     0.00,  176.843,   12.202
 2787.00,     0.00,  175.046,   12.078
 2796.00,     0.00,  174.971,   12.073
 2804.00,     0.00,  172.308,   11.889
 2812.00,     0.00,  160.113,   11.048
 2815.00,     0.00,  168.751,   11.644
 2820.00,     0.00,  174.764,   12.059
 2827.00,     0.00,  172.111,   11.876
 2831.00,     0.00,  170.342,   11.754
 2833.00,     0.00,  159.069,   10.976
 2837.00,     0.00,  165.092,   11.391
 2842.00,     0.00,  160.726,    11.09
 2847.00,     0.00,  165.008,   11.386
 2854.00,     0.00,  160.623,   11.083
 2863.00,     0.00,  164.876,   11.376
 2867.00,     0.00,  165.705,   11.434
 2869.00,     0.00,  162.223,   11.193
 2877.00,     0.00,  162.158,   11.189
 2923.00,     0.00,  159.167,   10.983
 2932.00,     0.00,  155.629,   10.738
 2937.00,     0.00,  154.717,   10.675
 2943.00,     0.00,   148.61,   10.254
 2946.00,     0.00,  153.776,   10.611
 2950.00,     0.00,  156.336,   10.787
 2952.00,     0.00,  146.794,   10.129
 2957.00,     0.00,  158.011,   10.903
 2960.00,     0.00,   154.52,   10.662
 2967.00,     0.00,  144.075,   9.9412
 2972.00,     0.00,  156.148,   10.774
 2973.00,     0.00,  148.348,   10.236
 2978.00,     0.00,  150.041,   10.353
 2983.00,     0.00,  148.263,    10.23
 2985.00,     0.00,  156.036,   10.766
 2994.00,     0.00,  153.364,   10.582
 3001.00,     0.00,  153.308,   10.578
 3008.00,     0.00,  149.779,   10.335
 3015.00,     0.00,  148.857,   10.271
 3020.00,     0.00,  144.482,   9.9693
 3025.00,     0.00,  150.504,   10.385
 3033.00,     0.00,  146.967,   10.141
 3042.00,     0.00,  148.623,   10.255
 3046.00,     0.00,  146.863,   10.134
 3051.00,     0.00,  151.145,   10.429
 3062.00,     0.00,  151.917,   10.482
 3066.00,     0.00,  147.551,   10.181
 3076.00,     0.00,  149.198,   10.295
 3083.00,     0.00,  149.142,   10.291
 3088.00,     0.00,  144.767,   9.9889
 3092.00,     0.00,  148.201,   10.226
 3099.00,     0.00,  143.807,   9.9227
 3107.00,     0.00,  142.876,   9.8584
 3126.00,     0.00,  147.911,   10.206
 3133.00,     0.00,  142.651,   9.8429
 3139.00,     0.00,  144.336,   9.9592
 3144.00,     0.00,  143.423,   9.8962
 3150.00,     0.00,  138.182,   9.5346
 3168.00,     0.00,  144.083,   9.9417
 3179.00,     0.00,  140.526,   9.6963
 3189.00,     0.00,  142.173,   9.8099
 3195.00,     0.00,  142.126,   9.8067
 3201.00,     0.00,   142.07,   9.8028
 3207.00,     0.00,  144.621,   9.9789
 3214.00,     0.00,  137.629,   9.4964
 3217.00,     0.00,  133.273,   9.1958
 3221.00,     0.00,  139.305,    9.612
 3225.00,     0.00,  144.461,   9.9678
 3230.00,     0.00,  137.498,   9.4874
 3236.00,     0.00,  137.442,   9.4835
 3242.00,     0.00,  139.127,   9.5998
 3249.00,     0.00,  139.061,   9.5952
 3255.00,     0.00,  135.551,    9.353
 3262.00,     0.00,   134.62,   9.2888
 3269.00,     0.00,  131.967,   9.1057
 3276.00,     0.00,  128.448,   8.8629
 3280.00,     0.00,  136.202,   9.3979
 3289.00,     0.00,  128.335,   8.8551
 3295.00,     0.00,  128.279,   8.8513
 3301.00,     0.00,  122.172,   8.4299
 3302.00,     0.00,  117.834,   8.1305
 3307.00,     0.00,  122.982,   8.4858
 3309.00,     0.00,  117.769,   8.1261
 3315.00,     0.00,  125.513,   8.6604
 3318.00,     0.00,  135.008,   9.3156
 3330.00,     0.00,  129.711,   8.9501
 3339.00,     0.00,  127.039,   8.7657
 3343.00,     0.00,  123.538,   8.5241
 3348.00,     0.00,  126.964,   8.7605
 3351.00,     0.00,  120.876,   8.3404
 3357.00,     0.00,  118.232,    8.158
 3363.00,     0.00,  125.101,    8.632
 3369.00,     0.00,  122.457,   8.4495
 3376.00,     0.00,  124.123,   8.5645
 3381.00,     0.00,  120.623,    8.323
 3404.00,     0.00,  120.426,   8.3094
 3419.00,     0.00,  122.892,   8.4795
 3426.00,     0.00,  116.776,   8.0575
 3431.00,     0.00,  114.132,   7.8751
 3434.00,     0.00,  116.701,   8.0524
 3443.00,     0.00,  112.297,   7.7485
 3449.00,     0.00,  113.982,   7.8648
 3452.00,     0.00,  116.551,    8.042
 3456.00,     0.00,  116.513,   8.0394
 3458.00,     0.00,  110.435,     7.62
 3462.00,     0.00,  113.869,    7.857
 3468.00,     0.00,  112.082,   7.7337
 3475.00,     0.00,  118.086,   8.1479
 3478.00,     0.00,  113.729,   7.8473
 3483.00,     0.00,   118.02,   8.1434
 3489.00,     0.00,  115.367,   7.9603
 3497.00,     0.00,  108.375,   7.4779
 3502.00,     0.00,  111.791,   7.7136
 3508.00,     0.00,  109.147,   7.5311
 3513.00,     0.00,  114.295,   7.8864
 3516.00,     0.00,  112.535,   7.7649
 3523.00,     0.00,  106.419,   7.3429
 3536.00,     0.00,  111.501,   7.6936
 3544.00,     0.00,  108.838,   7.5098
 3555.00,     0.00,  107.013,   7.3839
 3560.00,     0.00,  111.295,   7.6794
 3569.00,     0.00,  106.026,   7.3158
 3574.00,     0.00,  112.914,   7.7911
 3580.00,     0.00,  111.992,   7.7274
 3590.00,     0.00,   109.31,   7.5424
 3596.00,     0.00,   104.06,   7.1801
 3601.00,     0.00,  108.351,   7.4762
 3610.00,     0.00,   107.41,   7.4113
 3611.00,     0.00,  103.073,    7.112
 3623.00,     0.00,  102.104,   7.0452
 3629.00,     0.00,  104.645,   7.2205
 3632.00,     0.00,   96.825,   6.6809
 3637.00,     0.00,  100.251,   6.9173
 3640.00,     0.00,  104.551,    7.214
 3647.00,     0.00,  101.898,    7.031
 3653.00,     0.00,  100.976,   6.9673
 3661.00,     0.00,  101.776,   7.0225
 3668.00,     0.00,  104.317,   7.1979
 3673.00,     0.00,  100.807,   6.9557
 3681.00,     0.00,  102.473,   7.0706
 3688.00,     0.00,  103.273,   7.1258
 3693.00,     0.00,   98.907,   6.8246
 3697.00,     0.00,    98.87,    6.822
 3702.00,     0.00,   96.235,   6.6402
 3707.00,     0.00,  101.382,   6.9954
 3711.00,     0.00,  101.345,   6.9928
 3717.00,     0.00,   97.835,   6.7506
 3728.00,     0.00,  102.936,   7.1026
 3737.00,     0.00,   99.398,   6.8585
 3742.00,     0.00,    97.62,   6.7358
 3750.00,     0.00,   96.689,   6.6715
 3754.00,     0.00,   96.651,   6.6689
 3761.00,     0.00,   87.072,    6.008
 3765.00,     0.00,   93.095,   6.4236
 3769.00,     0.00,   93.057,   6.4209
 3776.00,     0.00,   89.538,   6.1781
 3779.00,     0.00,   92.107,   6.3554
 3784.00,     0.00,   87.741,   6.0541
 3792.00,     0.00,    86.80,   5.9892
 3802.00,     0.00,   94.507,    6.521
 3808.00,     0.00,   99.655,   6.8762
 3814.00,     0.00,   80.553,   5.5582
 3820.00,     0.00,   83.969,   5.7939
 3825.00,     0.00,   88.251,   6.0893
 3830.00,     0.00,   82.153,   5.6686
 3834.00,     0.00,    81.25,   5.6063
 3836.00,     0.00,   83.829,   5.7842
 3843.00,     0.00,   78.578,   5.4219
 3854.00,     0.00,   55.101,    3.802
 3861.00,     0.00,   77.553,   5.3512
 3868.00,     0.00,  112.991,   7.7964
 3874.00,     0.00,  117.272,   8.0918
 3884.00,     0.00,  114.591,   7.9068
 3897.00,     0.00,  111.016,   7.6601
 3899.00,     0.00,  104.937,   7.2407
 3913.00,     0.00,   96.158,   6.6349
 3919.00,     0.00,   98.708,   6.8109
 3930.00,     0.00,   98.615,   6.8044
 3946.00,     0.00,   98.474,   6.7947
 3947.00,     0.00,   90.674,   6.2565
 3954.00,     0.00,    81.96,   5.6552
 3960.00,     0.00,   87.098,   6.0098
 3967.00,     0.00,   87.908,   6.0657
 3969.00,     0.00,   81.829,   5.6462
 3979.00,     0.00,   83.476,   5.7598
 3992.00,     0.00,   81.632,   5.6326
 3997.00,     0.00,   75.526,   5.2113
 4000.00,     0.00,   82.433,   5.6879
 4003.00,     0.00,    89.33,   6.1638
 4008.00,     0.00,   93.612,   6.4592
 4013.00,     0.00,   90.111,   6.2177
 4022.00,     0.00,   92.634,   6.3917
 4023.00,     0.00,   86.826,    5.991
 4027.00,     0.00,   85.341,   5.8885
 4030.00,     0.00,   86.739,    5.985
 4035.00,     0.00,   84.522,    5.832
 4038.00,     0.00,   84.479,   5.8291
 4042.00,     0.00,   85.156,   5.8758
 4047.00,     0.00,   85.822,   5.9217
 4051.00,     0.00,   85.047,   5.8682
 4054.00,     0.00,   87.177,   6.0152
 4058.00,     0.00,   86.402,   5.9617
 4062.00,     0.00,   85.638,    5.909
 4066.00,     0.00,   84.153,   5.8066
 4068.00,     0.00,   84.841,    5.854
 4071.00,     0.00,   82.646,   5.7026
 4074.00,     0.00,   81.893,   5.6506
 4076.00,     0.00,   85.474,   5.8977
 4077.00,     0.00,   90.497,   6.2443
 4081.00,     0.00,   89.012,   6.1418
 4084.00,     0.00,   87.539,   6.0402
 4086.00,     0.00,   89.668,   6.1871
 4088.00,     0.00,   87.484,   6.0364
 4090.00,     0.00,    84.58,    5.836
 4094.00,     0.00,   83.816,   5.7833
 4098.00,     0.00,   83.041,   5.7298
 4101.00,     0.00,   83.729,   5.7773
 4104.00,     0.00,   83.685,   5.7743
 4108.00,     0.00,   83.642,   5.7713
 4112.00,     0.00,   81.436,   5.6191
 4117.00,     0.00,   83.533,   5.7638
 4122.00,     0.00,   83.479,   5.7601
 4126.00,     0.00,   82.704,   5.7066
 4131.00,     0.00,    83.37,   5.7525
 4134.00,     0.00,   83.327,   5.7496
 4139.00,     0.00,   86.155,   5.9447
 4143.00,     0.00,   83.938,   5.7917
 4148.00,     0.00,   86.046,   5.9372
 4153.00,     0.00,   85.992,   5.9334
 4155.00,     0.00,   83.077,   5.7323
 4159.00,     0.00,   85.916,   5.9282
 4165.00,     0.00,   87.281,   6.0224
 4171.00,     0.00,   85.774,   5.9184
 4173.00,     0.00,   90.797,    6.265
 4177.00,     0.00,   93.625,   8.7713
 4180.00,     0.00,   99.357,   6.8556
 4181.00,     0.00,   102.95,   7.1036
 4182.00,     0.00,  107.263,   7.4011
 4184.00,     0.00, 122.7345,  18.8684
 4186.00,     0.00,  154.071,   10.631
 4188.00,     0.00,  168.462,   11.624
 4189.00,     0.00,  168.085,    15.07
 4191.00,     0.00,  111.241,  35.6727
 4193.00,     0.00,   62.803,   7.8002
 4195.00,     0.00,   58.807,   4.0577
 4199.00,     0.00,   59.484,   4.1044
 4203.00,     0.00,   61.602,   4.2505
 4207.00,     0.00,    63.71,    4.396
 4212.00,     0.00,   63.655,   4.3922
 4217.00,     0.00,    63.59,   4.3877
 4223.00,     0.00,   62.804,   4.3335
 4227.00,     0.00,   60.588,   4.1806
 4233.00,     0.00,   59.802,   4.1263
 4239.00,     0.00,   58.285,   4.0217
 4244.00,     0.00,   54.616,   3.7685
 4252.00,     0.00,   54.529,   3.7625
 4256.00,     0.00,   50.151,   3.4604
 4267.00,     0.00,   47.859,   3.3023
 4273.00,     0.00,   53.548,   3.6948
 4278.00,     0.00,   62.862,   4.3375
 4284.00,     0.00,   74.327,   5.1286
 4289.00,     0.00,   77.864,   5.3726
 4295.00,     0.00,    78.52,   5.4179
 4300.00,     0.00,   79.175,   5.4631
 4306.00,     0.00,    80.54,   5.5573
 4312.00,     0.00,   79.034,   5.4533
 4317.00,     0.00,    80.41,   5.5483
 4323.00,     0.00,   81.065,   5.5935
 4328.00,     0.00,   83.162,   5.7382
 4335.00,     0.00,   85.237,   5.8814
 4340.00,     0.00,   84.462,   5.8279
 4341.00,     0.00,   89.495,   6.1752
 4344.00,     0.00,   91.625,   6.3221
 4346.00,     0.00,    89.43,   6.1707
 4348.00,     0.00,   96.615,   6.6664
 4350.00,     0.00,  101.637,    7.013
 4353.00,     0.00,  105.208,   7.2594
 4354.00,     0.00,   119.61,   8.2531
 4355.00,     0.00,  138.335,   9.5451
 4358.00,     0.00,  193.081,   13.323
 4361.00,     0.00,  247.827,    17.10
 4364.00,     0.00,  239.147,   16.501
 4365.00,     0.00,  154.801,   10.681
 4367.00,     0.00,   74.768,    5.159
 4368.00,     0.00,   40.876,   2.8204
 4372.00,     0.00,   30.013,   2.0709
 4375.00,     0.00,   26.377,     1.82
 4377.00,     0.00,   18.428,   1.2715
 4379.00,     0.00,   36.422,   2.5131
 4382.00,     0.00,   39.272,   2.7098
 4384.00,     0.00,   42.122,   2.9064
 4387.00,     0.00,   40.648,   2.8047
 4390.00,     0.00,   44.939,   3.1008
 4396.00,     0.00,   43.422,   2.9961
 4402.00,     0.00,   42.636,   2.9419
 4405.00,     0.00,   44.034,   3.0383
 4413.00,     0.00,   43.936,   3.0316
 4419.00,     0.00,   56.121,   3.8724
 4425.00,     0.00,   66.145,    4.564
 4430.00,     0.00,   63.918,   4.4103
 4437.00,     0.00,   66.724,    4.604
 4441.00,     0.00,   63.067,   4.3516
 4447.00,     0.00,   64.432,   4.4458
 4453.00,     0.00,   63.646,   4.3916
 4457.00,     0.00,    62.15,   4.2884
 4462.00,     0.00,   62.096,   4.2846
 4466.00,     0.00,   62.762,   4.3306
 4470.00,     0.00,   67.043,    4.626
 4475.00,     0.00,   60.492,   4.1739
 4480.00,     0.00,   56.834,   3.9215
 4484.00,     0.00,   65.438,   4.5152
 4487.00,     0.00,    60.35,   4.1642
 4490.00,     0.00,   59.597,   4.1122
 4494.00,     0.00,   61.705,   4.2576
 4499.00,     0.00,   57.327,   3.9556
 4503.00,     0.00,   59.434,   4.1009
 4513.00,     0.00,   52.829,   3.6452
 4516.00,     0.00,   46.311,   3.1955
 4518.00,     0.00,   41.234,   2.8451
 4520.00,     0.00,   52.021,   3.5895
 4522.00,     0.00,   61.368,   4.2344
 4526.00,     0.00,    68.53,   4.7286
 4530.00,     0.00,   69.208,   4.7754
 4533.00,     0.00,   67.002,   4.6231
 4535.00,     0.00,   63.377,    4.373
 4539.00,     0.00,   61.172,   4.2209
 4543.00,     0.00,   61.838,   4.2668
 4544.00,     0.00,   58.224,   4.0175
 4549.00,     0.00,   59.611,   4.1132
 4553.00,     0.00,    63.16,    4.358
 4559.00,     0.00,   61.653,   4.2541
 4563.00,     0.00,   61.239,   7.6923
 4568.00,     0.00,   59.383,   4.0974
 4572.00,     0.00,   60.049,   4.1434
 4577.00,     0.00,   59.995,   4.1397
 4581.00,     0.00,    59.22,   4.0862
 4587.00,     0.00,   56.993,   3.9325
 4592.00,     0.00,   56.927,    3.928
 4602.00,     0.00,   48.881,   3.3728
 4609.00,     0.00,   49.515,   3.4165
 4616.00,     0.00,    50.88,   3.5107
 4623.00,     0.00,   52.955,   3.6539
 4629.00,     0.00,   44.952,   3.1017
 4636.00,     0.00,   46.306,   3.1951
 4649.00,     0.00,   46.874,   3.2343
 4653.00,     0.00,   44.669,   3.0822
 4657.00,     0.00,   40.291,   2.7801
 4662.00,     0.00,   40.946,   2.8253
 4667.00,     0.00,    38.73,   2.6724
 4671.00,     0.00,   36.525,   2.5202
 4676.00,     0.00,   37.901,   2.6152
 4681.00,     0.00,   65.951,   4.5506
 4684.00,     0.00,   71.683,   4.9461
 4686.00,     0.00,   65.896,   4.5468
 4688.00,     0.00,   60.819,   4.1965
 4694.00,     0.00,   53.537,   3.6941
 4700.00,     0.00,   53.472,   3.6896
 4704.00,     0.00,    56.30,   3.8847
 4708.00,     0.00,   47.609,    3.285
 4720.00,     0.00,   53.233,   3.6731
 4722.00,     0.00,   58.976,   4.0693
 4726.00,     0.00,   64.687,   4.4634
 4729.00,     0.00,    71.14,   4.9087
 4743.00,     0.00,   84.669,   5.8422
 4749.00,     0.00,   84.592,   5.8368
 4754.00,     0.00,   83.817,   5.7834
 4758.00,     0.00,   84.484,   5.8294
 4763.00,     0.00,   82.988,   5.7262
 4769.00,     0.00,   80.029,    5.522
 4777.00,     0.00,    78.49,   5.4158
 4784.00,     0.00,   74.091,   5.1123
 4788.00,     0.00,   74.757,   5.1582
 4793.00,     0.00,   73.261,    5.055
 4801.00,     0.00,   70.281,   4.8494
 4811.00,     0.00,   67.268,   4.6415
 4820.00,     0.00,   64.997,   4.4848
 4830.00,     0.00,   64.889,   4.4773
 4839.00,     0.00,   62.618,   4.3206
 4845.00,     0.00,    60.38,   4.1662
 4850.00,     0.00,   61.035,   4.2114
 4856.00,     0.00,   61.691,   4.2567
 4859.00,     0.00,   63.089,   4.3531
 4864.00,     0.00,   64.475,   4.4488
 4865.00,     0.00,   73.833,   5.0945
 4866.00,     0.00,   67.336,   4.6462
 4868.00,     0.00,   83.889,   5.7883
 4869.00,     0.00,   90.364,   6.2351
 4873.00,     0.00,   49.234,   3.3971
 4874.00,     0.00,   44.888,   3.0973
 4879.00,     0.00,   46.996,   3.2427
 4886.00,     0.00,   59.891,   4.1325
 4890.00,     0.00,   61.278,   4.2282
 4891.00,     0.00,   56.222,   3.8793
 4897.00,     0.00,   61.911,   4.2719
 4899.00,     0.00,   66.934,   4.6184
 4903.00,     0.00,   58.243,   4.0188
 4905.00,     0.00,   63.266,   4.3654
 4911.00,     0.00,   64.631,   4.4595
 5028.00,     0.00,   61.787,   4.2633
 5031.00,     0.00,    57.42,    3.962
 5033.00,     0.00,   62.442,   4.3085
 5039.00,     0.00,   60.936,   4.2046
 5040.00,     0.00,   63.076,   4.3522
 5045.00,     0.00,   71.669,   4.9452
 5047.00,     0.00,   96.149,   6.6343
 5052.00,     0.00,  85.2855,   8.9661
 5053.00,     0.00,  73.7385,    7.405
 5056.00,     0.00,   66.494,   4.5881
 5060.00,     0.00,   62.848,   4.3365
 5065.00,     0.00,   62.783,    4.332
 5071.00,     0.00,   61.986,    4.277
 5072.00,     0.00,   64.858,   4.4752
 5077.00,     0.00,   65.524,   4.5212
 5080.00,     0.00,   68.374,   4.7178
 5085.00,     0.00,    69.75,   4.8128
 5199.00,     0.00,    58.36,   4.0268
 5206.00,     0.00,    52.51,   3.6232
 5213.00,     0.00,    55.41,   3.8233
 5220.00,     0.00,    54.81,   3.7819
 5226.00,     0.00,    56.11,   3.8716
 5232.00,     0.00,    52.08,   3.5935
 5238.00,     0.00,    53.31,   3.6784
 5246.00,     0.00,    56.21,   3.8785
 5253.00,     0.00,    53.86,   3.7163
 5258.00,     0.00,    56.91,   3.9268
 5264.00,     0.00,    58.21,   4.0165
 5267.00,     0.00,    54.41,   3.7543
 5272.00,     0.00,    59.29,    4.091
 5275.00,     0.00,    65.99,   4.5533
 5280.00,     0.00,    70.87,     4.89
 5285.00,     0.00,    77.50,   5.3475
 5288.00,     0.00,    87.70,   6.0513
 5291.00,     0.00,   105.06,   7.2491
 5294.00,     0.00,   131.10,   9.0459
 5297.00,     0.00,   223.81,   15.443
 5299.00,     0.00,   244.67,   16.882
 5302.00,     0.00,   114.66,   7.9115
 5304.00,     0.00,    47.83,   3.3003
 5305.00,     0.00,    31.93,   2.2032
 5309.00,     0.00,    24.55,    1.694
 5315.00,     0.00,    29.35,   2.0252
 5322.00,     0.00,    32.25,   2.2253
 5328.00,     0.00,    38.81,   2.6779
 5335.00,     0.00,    41.71,    2.878
 5341.00,     0.00,    44.68,   3.0829
 5347.00,     0.00,    49.49,   3.4148
 5352.00,     0.00,    50.79,   3.5045
 5357.00,     0.00,    53.91,   3.7198
 5360.00,     0.00,    60.62,   4.1828
 5364.00,     0.00,    65.57,   4.5243
 5366.00,     0.00,    75.93,   5.2392
 5368.00,     0.00,    86.28,   5.9533
 5369.00,     0.00,    96.71,    6.673
 5371.00,     0.00,   112.32,   7.7501
 5373.00,     0.00,   144.63,   22.145
 5374.00,     0.00,   212.04,   14.631
 5376.00,     0.00,   336.42,   23.213
 5378.00,     0.00,   418.71,   28.891
 5380.00,     0.00,   490.49,   33.844
 5381.00,     0.00,   681.56,   47.028
 5383.00,     0.00,   665.65,    45.93
 5384.00,     0.00,   562.05,   38.781
 5385.00,     0.00,   418.11,    28.85
 5387.00,     0.00,   260.09,   51.716
 5388.00,     0.00,   203.91,    14.07
 5389.00,     0.00,  133.615,   26.104
 5392.00,     0.00,   100.09,   6.9062
 5393.00,     0.00,    87.68,   6.0499
 5396.00,     0.00,    82.20,   5.6718
 5398.00,     0.00,    73.23,   5.0529
 5401.00,     0.00,    78.25,   5.3993
 5405.00,     0.00,    74.45,   5.1371
 5409.00,     0.00,    68.82,   4.7486
 5411.00,     0.00,    58.09,   4.0082
 5413.00,     0.00,    42.19,   2.9111
 5415.00,     0.00,    52.54,   3.6253
 5417.00,     0.00,    43.56,   3.0056
 5421.00,     0.00,    45.01,   3.1057
 5426.00,     0.00,    46.39,   3.2009
 5431.00,     0.00,    44.19,   3.0491
 5437.00,     0.00,    45.41,   3.1333
 5442.00,     0.00,    43.29,    2.987
 5446.00,     0.00,    42.91,   2.9608
 5451.00,     0.00,    42.46,   2.9297
 5457.00,     0.00,    42.01,   2.8987
 5460.00,     0.00,    43.47,   2.9994
 5463.00,     0.00,    46.74,   3.2251
 5468.00,     0.00,    42.79,   2.9525
 5473.00,     0.00,    49.42,     3.41
 5477.00,     0.00,    50.87,     3.51
 5481.00,     0.00,    54.00,    3.726
 5485.00,     0.00,    60.70,   4.1883
 5489.00,     0.00,    69.15,   4.7714
 5491.00,     0.00,   84.765,  15.2079
 5493.00,     0.00,    82.86,   5.7173
 5496.00,     0.00,    51.58,  16.0877
 5497.00,     0.00,    31.64,   2.1832
 5499.00,     0.00,    26.16,    1.805
 5501.00,     0.00,    34.76,   2.3984
 5506.00,     0.00,    39.64,   2.7352
 5510.00,     0.00,    42.84,    2.956
 5513.00,     0.00,    46.04,   3.1768
 5517.00,     0.00,    47.50,   3.2775
 5521.00,     0.00,    47.20,   3.2568
 5526.00,     0.00,    50.25,   3.4673
 5530.00,     0.00,    49.95,   3.4466
 5533.00,     0.00,    47.90,   3.3051
 5539.00,     0.00,    61.45,   4.2401
 5542.00,     0.00,    68.23,   4.7079
 5545.00,     0.00,    74.93,   5.1702
 5547.00,     0.00,    85.29,    5.885
 5550.00,     0.00,   111.40,   7.6866
 5551.00,     0.00,   125.33,   8.6478
 5553.00,     0.00,   163.78,   11.301
 5554.00,     0.00,   198.72,   13.712
 5556.00,     0.00,   242.41,   16.726
 5558.00,     0.00,   224.75,   15.508
 5560.00,     0.00,   150.92,   10.413
 5562.00,     0.00,  57.1667,  34.5963
 5563.00,     0.00,    22.59,   1.5587
 5565.00,     0.00,    13.68,   0.9439
 5568.00,     0.00,     8.13,    0.561
 5572.00,     0.00,    13.08,   0.9025
 5575.00,     0.00,    18.03,   1.2441
 5579.00,     0.00,    21.24,   1.4656
 5584.00,     0.00,    26.11,   1.8016
 5587.00,     0.00,    27.56,   1.9016
 5591.00,     0.00,    30.77,   2.1231
 5594.00,     0.00,    32.29,    2.228
 5597.00,     0.00,    35.49,   2.4488
 5603.00,     0.00,    35.04,   2.4178
 5607.00,     0.00,    36.42,    2.513
 5612.00,     0.00,    36.05,   2.4875
 5618.00,     0.00,    33.77,   2.3301
 5623.00,     0.00,    36.82,   2.5406
 5629.00,     0.00,    36.37,   2.5095
 5633.00,     0.00,    36.00,    2.484
 5637.00,     0.00,    37.45,   2.5841
 5642.00,     0.00,    35.25,   2.4323
 5648.00,     0.00,    34.72,   2.3957
 5652.00,     0.00,    34.42,    2.375
 5656.00,     0.00,    32.37,   2.2335
 5659.00,     0.00,    30.32,   2.0921
 5663.00,     0.00,    28.27,   1.9506
 5666.00,     0.00,    22.72,   1.5677
 5670.00,     0.00,    17.16,    1.184
 5673.00,     0.00,    13.36,   0.9218
 5678.00,     0.00,    14.74,   1.0171
 5680.00,     0.00,    23.34,   1.6105
 5681.00,     0.00,    32.02,   2.2094
 5683.00,     0.00,    44.13,    3.045
 5685.00,     0.00,    57.98,   4.0006
 5687.00,     0.00,    68.34,   4.7155
 5691.00,     0.00,    73.29,    5.057
 5694.00,     0.00,    71.24,   4.9156
 5698.00,     0.00,    70.94,   4.8949
 5699.00,     0.00,    86.62,   5.9768
 5703.00,     0.00,   137.17,   9.4647
 5705.00,     0.00,   108.93,   7.5162
 5707.00,     0.00,    89.45,   6.1721
 5711.00,     0.00,   53.145,  15.8696
 5715.00,     0.00,    29.17,   2.0127
 5719.00,     0.00,    28.80,   1.9872
 5721.00,     0.00,    33.90,   2.3391
 5725.00,     0.00,    37.10,   2.5599
 5729.00,     0.00,    38.48,   2.6551
 5733.00,     0.00,    41.68,   2.8759
 5737.00,     0.00,    44.81,   3.0919
 5741.00,     0.00,    41.00,    2.829
 5745.00,     0.00,    38.88,   2.6827
 5748.00,     0.00,    28.15,   1.9424
 5751.00,     0.00,    40.18,   2.7724
 5752.00,     0.00,   119.88,    44.81
 5754.00,     0.00,  131.985,  15.6974
 5756.00,     0.00,   106.41,   7.3423
 5757.00,     0.00,    92.25,   6.3653
 5759.00,     0.00,    86.85,   5.9927
 5760.00,     0.00,    78.02,   5.3834
 5763.00,     0.00,    68.97,   4.7589
 5767.00,     0.00,    54.59,   3.7667
 5770.00,     0.00,    59.61,   4.1131
 5773.00,     0.00,    55.89,   3.8564
 5777.00,     0.00,    55.51,   3.8302
 5781.00,     0.00,    58.72,   4.0517
 5782.00,     0.00,   93.695,  32.7036
 5784.00,     0.00,   184.70,   12.744
 5787.00,     0.00,   209.06,   14.425
 5789.00,     0.00,   130.81,   62.487
 5792.00,     0.00,    73.57,   5.0763
 5793.00,     0.00,    64.74,   4.4671
 5794.00,     0.00,    59.34,   4.0945
 5796.00,     0.00,    34.60,   2.3874
 5797.00,     0.00,    50.36,   3.4748
 5799.00,     0.00,    15.12,   1.0433
 5801.00,     0.00,    34.23,   2.3619
 5802.00,     0.00,    23.57,   1.6263
 5803.00,     0.00,    88.43,  24.0327
 5806.00,     0.00,   126.72,   8.7437
 5809.00,     0.00,    86.15,   5.9444
 5811.00,     0.00,    52.66,   3.6335
 5812.00,     0.00,    38.58,    2.662
 5814.00,     0.00,    20.85,   1.4387
 5818.00,     0.00,    20.47,   1.4124
 5821.00,     0.00,    30.75,   2.1218
 5827.00,     0.00,    33.81,   2.3329
 5832.00,     0.00,    33.36,   2.3018
 5838.00,     0.00,    36.41,   2.5123
 5843.00,     0.00,    37.71,    2.602
 5847.00,     0.00,    35.58,    2.455
 5853.00,     0.00,    36.88,   2.5447
 5857.00,     0.00,    38.33,   2.6448
 5862.00,     0.00,    41.39,   2.8559
 5867.00,     0.00,    39.19,   2.7041
 5871.00,     0.00,    44.14,   3.0457
 5875.00,     0.00,    42.09,   2.9042
 5879.00,     0.00,    41.71,    2.878
 5883.00,     0.00,    44.91,   3.0988
 5887.00,     0.00,    46.29,    3.194
 5892.00,     0.00,    42.34,   2.9215
 5898.00,     0.00,    45.39,   3.1319
 5901.00,     0.00,    50.42,    3.479
 5906.00,     0.00,    49.97,   3.4479
 5911.00,     0.00,    49.52,   3.4169
 5916.00,     0.00,    50.89,   3.5114
 5921.00,     0.00,    54.02,   3.7274
 5925.00,     0.00,    53.65,   3.7019
 5930.00,     0.00,    56.77,   3.9171
 5935.00,     0.00,    59.82,   4.1276
 5940.00,     0.00,    64.70,   4.4643
 5944.00,     0.00,    69.58,    4.801
 5947.00,     0.00,    99.19,   6.8441
 5951.00,     0.00,   118.15,   8.1524
 5953.00,     0.00,   128.51,   8.8672
EndData:

