Comment:    Automatically converted from EXFOR
            by the IAEA-NDS EXFOR Web-Retrieval System
            program version-2015/02/20, by V.Zerkin.
            "A Study of Nuclear Levels in 32S by the Reaction
             28Si(alpha,alpha)28Si and Single Particle Potential
             Representation"
            M.K.Leung
            EXFOR: C2100007    Created: 2014-04-14  Updated: 2014-11-13
            X4Reaction:14-SI-28(A,EL)14-SI-28,,DA; X4Points:755
            LevelEnergy: 0.00

Version:      R33
X4Number:     C2100007
Source:       M.K.Leung(1972), Thes. Thesis or dissertation, Name.Leung
Reaction:     28Si(a,a0)28Si
Distribution: Energy
Sigfactors:   1.00, 0.00
Enfactors:    1.00, 0.00, 0.00, 0.00
Units:        mb
Composition:
Masses:       4.0, 28.0, 4.0, 28.0
Zeds:         2, 14, 2, 14
Qvalue:       0.0, 0.00, 0.00, 0.00, 0.00
Theta:        82
Data:
 2492.00,     0.00,   917.23,   58.703
 2493.00,     0.00,   888.30,   56.851
 2498.00,     0.00,   919.96,   58.877
 2506.00,     0.00,   883.25,   56.528
 2510.00,     0.00,   899.10,   57.542
 2513.00,     0.00,   862.30,   55.187
 2518.00,     0.00,   872.91,   55.866
 2521.00,     0.00,   859.79,   55.027
 2531.00,     0.00,   849.41,   54.362
 2537.00,     0.00,   841.62,   53.864
 2547.00,     0.00,   836.51,   53.537
 2552.00,     0.00,   820.80,   52.531
 2560.00,     0.00,   831.45,   53.213
 2562.00,     0.00,   847.28,   54.226
 2568.00,     0.00,   815.79,   52.211
 2573.00,     0.00,   797.45,   51.037
 2578.00,     0.00,   823.85,   52.726
 2581.00,     0.00,   810.73,   51.887
 2588.00,     0.00,   797.68,   51.052
 2597.00,     0.00,   793.88,   60.608
 2604.00,     0.00,   761.09,    48.71
 2613.00,     0.00,   774.39,   49.561
 2625.00,     0.00,   761.42,   48.731
 2633.00,     0.00,   769.44,   49.244
 2641.00,     0.00,   745.88,   47.736
 2642.00,     0.00,   769.58,   49.253
 2649.00,     0.00,   732.85,   46.902
 2656.00,     0.00,   717.16,   45.898
 2660.00,     0.00,   730.38,   46.744
 2669.00,     0.00,   725.27,   46.417
 2673.00,     0.00,   712.17,   45.579
 2676.00,     0.00,   699.06,    44.74
 2684.00,     0.00,   699.18,   44.748
 2687.00,     0.00,   686.07,   43.908
 2695.00,     0.00,   688.82,   44.084
 2701.00,     0.00,   699.45,   44.765
 2711.00,     0.00,   683.81,   43.764
 2720.00,     0.00,   681.32,   43.604
 2729.00,     0.00,   681.47,   43.614
 2732.00,     0.00,   652.56,   41.764
 2736.00,     0.00,   636.84,   40.758
 2739.00,     0.00,   673.72,   43.118
 2744.00,     0.00,   658.01,   42.113
 2745.00,     0.00,   636.98,   40.767
 2752.00,     0.00,   663.40,   42.458
 2760.00,     0.00,   647.74,   41.455
 2770.00,     0.00,   663.69,   42.476
 2777.00,     0.00,   663.80,   42.483
 2782.00,     0.00,   663.88,   42.488
 2789.00,     0.00,   663.98,   42.495
 2794.00,     0.00,   669.33,   42.837
 2797.00,     0.00,   679.90,   43.514
 2802.00,     0.00,   658.93,   42.172
 2810.00,     0.00,   690.63,    44.20
 2814.00,     0.00,   636.75,   47.753
 2821.00,     0.00,   685.53,   43.874
 2830.00,     0.00,   661.99,   42.367
 2836.00,     0.00,   617.34,    39.51
 2840.00,     0.00,   635.83,   40.693
 2845.00,     0.00,   612.23,   39.183
 2850.00,     0.00,   630.73,   40.367
 2853.00,     0.00,   643.93,   41.212
 2857.00,     0.00,   641.36,   41.047
 2858.00,     0.00,   604.54,   38.691
 2865.00,     0.00,   652.01,   41.729
 2869.00,     0.00,   636.28,   40.722
 2878.00,     0.00,   623.27,   39.889
 2884.00,     0.00,   628.62,   40.232
 2922.00,     0.00,   566.07,   36.228
 2932.00,     0.00,   579.37,    37.08
 2936.00,     0.00,   595.22,   38.094
 2941.00,     0.00,   571.62,   36.584
 2946.00,     0.00,   563.81,   36.084
 2952.00,     0.00,   579.68,    37.10
 2959.00,     0.00,   587.70,   37.613
 2963.00,     0.00,   579.87,   37.112
 2964.00,     0.00,   532.50,    34.08
 2971.00,     0.00,   587.89,   37.625
 2983.00,     0.00,   564.39,   36.121
 2986.00,     0.00,   551.27,   35.281
 2993.00,     0.00,   567.17,   36.299
 3003.00,     0.00,   564.70,   36.141
 3009.00,     0.00,   549.00,   35.136
 3013.00,     0.00,   564.85,    36.15
 3021.00,     0.00,   564.97,   36.158
 3041.00,     0.00,   586.33,   37.525
 3051.00,     0.00,   583.87,   37.368
 3059.00,     0.00,   586.63,   37.544
 3070.00,     0.00,   592.05,   37.891
 3071.00,     0.00,   565.76,   36.209
 3083.00,     0.00,   563.32,   36.052
 3090.00,     0.00,   576.58,   36.901
 3098.00,     0.00,   560.91,   35.898
 3102.00,     0.00,   571.50,   36.576
 3107.00,     0.00,   576.85,   36.918
 3110.00,     0.00,   563.73,   36.079
 3119.00,     0.00,   563.88,   36.088
 3122.00,     0.00,   590.23,   37.775
 3131.00,     0.00,   587.75,   37.616
 3134.00,     0.00,   577.26,   36.945
 3139.00,     0.00,   561.56,    35.94
 3144.00,     0.00,   569.54,   36.451
 3150.00,     0.00,   548.57,   35.108
 3152.00,     0.00,   564.40,   36.122
 3156.00,     0.00,   577.62,   36.968
 3160.00,     0.00,   561.89,   35.961
 3168.00,     0.00,   559.38,    35.80
 3172.00,     0.00,   543.66,   34.794
 3176.00,     0.00,   572.67,   36.651
 3183.00,     0.00,   564.87,   36.152
 3188.00,     0.00,   559.70,   35.821
 3193.00,     0.00,   551.88,    35.32
 3200.00,     0.00,   557.25,   35.664
 3205.00,     0.00,   552.07,   35.332
 3212.00,     0.00,   565.33,   36.181
 3217.00,     0.00,   549.63,   35.176
 3225.00,     0.00,   586.59,   37.542
 3227.00,     0.00,   573.45,   36.701
 3233.00,     0.00,   584.08,   37.381
 3239.00,     0.00,   578.90,    37.05
 3241.00,     0.00,   586.84,   37.558
 3245.00,     0.00,   571.11,   36.551
 3248.00,     0.00,   550.10,   35.206
 3256.00,     0.00,   555.49,   35.551
 3263.00,     0.00,   563.49,   36.063
 3265.00,     0.00,   539.85,    34.55
 3269.00,     0.00,   555.70,   35.565
 3272.00,     0.00,   563.64,   36.073
 3279.00,     0.00,   534.79,   34.227
 3285.00,     0.00,   521.74,   33.391
 3288.00,     0.00,   537.57,   34.404
 3291.00,     0.00,   524.45,   33.565
 3300.00,     0.00,   529.86,   33.911
 3304.00,     0.00,   519.40,   33.242
 3308.00,     0.00,   532.62,   34.088
 3316.00,     0.00,   535.38,   34.264
 3320.00,     0.00,   543.33,   34.773
 3326.00,     0.00,   535.54,   34.275
 3330.00,     0.00,   543.50,   34.784
 3337.00,     0.00,   546.23,   34.959
 3340.00,     0.00,   525.22,   33.614
 3344.00,     0.00,   520.02,   33.281
 3348.00,     0.00,   525.35,   33.622
 3353.00,     0.00,   485.96,   31.101
 3354.00,     0.00,   535.98,   34.303
 3359.00,     0.00,   486.04,   31.107
 3364.00,     0.00,   478.23,   30.607
 3366.00,     0.00,   491.43,   31.452
 3372.00,     0.00,   473.09,   30.278
 3376.00,     0.00,   510.00,    32.64
 3380.00,     0.00,   489.01,   31.297
 3388.00,     0.00,   491.76,   31.473
 3396.00,     0.00,   481.36,   30.807
 3401.00,     0.00,   473.55,   30.307
 3404.00,     0.00,   494.64,   31.657
 3410.00,     0.00,   476.33,   30.485
 3413.00,     0.00,   492.16,   31.498
 3420.00,     0.00,   484.37,    31.00
 3424.00,     0.00,   494.96,   31.677
 3429.00,     0.00,   487.14,   31.177
 3440.00,     0.00,   463.63,   29.672
 3448.00,     0.00,   484.80,   31.027
 3450.00,     0.00,   466.43,   29.852
 3455.00,     0.00,   492.82,    31.54
 3457.00,     0.00,   477.05,   30.531
 3469.00,     0.00,   469.35,   30.038
 3475.00,     0.00,   482.61,   30.887
 3478.00,     0.00,   474.76,   30.385
 3487.00,     0.00,   488.06,   31.236
 3489.00,     0.00,   464.40,   29.722
 3494.00,     0.00,   448.69,   28.716
 3497.00,     0.00,   475.05,   30.403
 3507.00,     0.00,   456.79,   29.235
 3518.00,     0.00,   454.33,   29.077
 3523.00,     0.00,   491.25,    31.44
 3529.00,     0.00,   449.23,   28.751
 3537.00,     0.00,   480.93,    30.78
 3545.00,     0.00,   441.59,   28.262
 3555.00,     0.00,   452.28,   28.946
 3567.00,     0.00,   444.57,   28.452
 3571.00,     0.00,   463.05,   29.635
 3580.00,     0.00,   481.62,   30.824
 3588.00,     0.00,   465.95,   29.821
 3597.00,     0.00,   445.03,   28.482
 3602.00,     0.00,   458.27,   29.329
 3608.00,     0.00,   468.90,    30.01
 3614.00,     0.00,   445.30,   28.499
 3622.00,     0.00,   440.16,    28.17
 3631.00,     0.00,   448.20,   28.685
 3638.00,     0.00,   429.88,   27.512
 3642.00,     0.00,   453.63,   29.032
 3651.00,     0.00,   456.41,    29.21
 3652.00,     0.00,   443.27,   28.369
 3662.00,     0.00,   448.68,   28.716
 3667.00,     0.00,   438.23,   28.047
 3671.00,     0.00,   419.88,   26.872
 3676.00,     0.00,   448.91,    28.73
 3682.00,     0.00,   430.57,   27.556
 3690.00,     0.00,   433.32,   27.732
 3696.00,     0.00,   422.90,   27.066
 3703.00,     0.00,   412.48,   26.399
 3710.00,     0.00,   415.22,   26.574
 3724.00,     0.00,   418.08,   26.757
 3732.00,     0.00,   431.36,   27.607
 3736.00,     0.00,   413.00,   26.432
 3740.00,     0.00,   420.96,   26.941
 3747.00,     0.00,   418.43,    26.78
 3755.00,     0.00,   397.50,    25.44
 3761.00,     0.00,   410.76,   26.289
 3767.00,     0.00,   397.69,   25.452
 3772.00,     0.00,   405.67,   25.963
 3780.00,     0.00,   403.16,   25.802
 3793.00,     0.00,   379.69,    24.30
 3804.00,     0.00,   393.01,   25.153
 3816.00,     0.00,   351.09,    22.47
 3820.00,     0.00,   356.42,   22.811
 3827.00,     0.00,   351.26,   22.481
 3835.00,     0.00,   343.49,   21.983
 3841.00,     0.00,   354.12,   22.664
 3849.00,     0.00,   354.24,   22.671
 3856.00,     0.00,   359.61,   23.015
 3860.00,     0.00,   341.25,    21.84
 3867.00,     0.00,   354.51,   22.689
 3872.00,     0.00,   362.49,   23.199
 3879.00,     0.00,   375.75,   24.048
 3884.00,     0.00,   365.31,    23.38
 3891.00,     0.00,   365.41,   23.386
 3901.00,     0.00,   352.42,   22.555
 3915.00,     0.00,   331.58,   21.221
 3920.00,     0.00,   357.98,   22.911
 3931.00,     0.00,   342.35,    21.91
 3937.00,     0.00,   337.20,   21.581
 3948.00,     0.00,   324.20,   20.749
 3958.00,     0.00,   324.37,    20.76
 3966.00,     0.00,   329.76,   21.105
 3970.00,     0.00,   340.35,   21.782
 3976.00,     0.00,   322.01,   20.609
 3980.00,     0.00,   306.28,   19.602
 3984.00,     0.00,   322.13,   20.616
 3992.00,     0.00,   322.26,   20.625
 3997.00,     0.00,   332.87,   21.304
 4004.00,     0.00,   327.71,   20.973
 4005.00,     0.00,   309.31,   19.796
 4010.00,     0.00,   327.81,    20.98
 4014.00,     0.00,   319.98,   20.479
 4021.00,     0.00,   343.77,   22.001
 4030.00,     0.00,   349.17,   22.347
 4031.00,     0.00,  315.953,   20.221
 4035.00,     0.00,  315.933,    20.22
 4038.00,     0.00,  313.762,   20.081
 4044.00,     0.00,  320.182,   20.492
 4048.00,     0.00,  320.157,    20.49
 4054.00,     0.00,  320.126,   20.488
 4056.00,     0.00, 321.1905,  24.7515
 4058.00,     0.00,  319.383,   20.441
 4062.00,     0.00,  320.796,   20.531
 4064.00,     0.00,  311.468,   19.934
 4068.00,     0.00,  313.598,    20.07
 4071.00,     0.00,  312.143,   19.977
 4073.00,     0.00,  291.346,   18.646
 4075.00,     0.00,  288.463,   18.462
 4077.00,     0.00,  302.077,   19.333
 4080.00,     0.00,  311.375,   19.928
 4085.00,     0.00,  312.783,   20.018
 4088.00,     0.00,  317.069,   20.292
 4092.00,     0.00,  317.043,   20.291
 4096.00,     0.00,  309.137,   19.785
 4099.00,     0.00,  304.816,   19.508
 4104.00,     0.00,   302.64,   19.369
 4107.00,     0.00,  300.469,    19.23
 4112.00,     0.00,  305.461,    19.55
 4117.00,     0.00,  301.846,   19.318
 4122.00,     0.00,  303.254,   19.408
 4126.00,     0.00,  299.649,   19.178
 4130.00,     0.00,   298.19,   19.084
 4136.00,     0.00,  296.726,    18.99
 4139.00,     0.00,  293.121,    18.76
 4143.00,     0.00,   293.10,   18.758
 4147.00,     0.00,  293.792,   18.803
 4149.00,     0.00,  296.648,   18.985
 4153.00,     0.00,  295.194,   18.892
 4157.00,     0.00,  294.452,   18.845
 4160.00,     0.00,  292.286,   18.706
 4166.00,     0.00,  290.105,   18.567
 4170.00,     0.00,  288.645,   18.473
 4173.00,     0.00,  287.913,   18.426
 4177.00,     0.00,  290.043,   18.563
 4181.00,     0.00,  292.885,   18.745
 4186.00,     0.00,  295.726,   18.926
 4189.00,     0.00, 288.5375,  20.7545
 4193.00,     0.00,  283.499,   18.144
 4195.00,     0.00,  289.223,    18.51
 4198.00,     0.00,  293.504,   18.784
 4200.00,     0.00,  288.476,   18.462
 4202.00,     0.00,  291.333,   18.645
 4206.00,     0.00,  294.179,   18.827
 4210.00,     0.00,  288.419,   18.459
 4216.00,     0.00,  292.689,   18.732
 4218.00,     0.00,  289.807,   18.548
 4222.00,     0.00,  288.352,   18.455
 4226.00,     0.00,  284.031,   18.178
 4227.00,     0.00,  276.858,   17.719
 4229.00,     0.00,  283.294,   18.131
 4231.00,     0.00,  279.699,   17.901
 4232.00,     0.00,  285.429,   18.267
 4237.00,     0.00,  278.952,   17.853
 4238.00,     0.00,  281.092,    17.99
 4246.00,     0.00,  279.617,   17.895
 4251.00,     0.00,  275.286,   17.618
 4257.00,     0.00,   277.40,   17.754
 4267.00,     0.00,  273.759,   17.521
 4274.00,     0.00,   274.44,   17.564
 4279.00,     0.00,  273.693,   17.516
 4285.00,     0.00,  274.379,    17.56
 4290.00,     0.00,  273.631,   17.512
 4296.00,     0.00,  272.883,   17.465
 4301.00,     0.00,  271.419,   17.371
 4308.00,     0.00,   272.10,   17.414
 4313.00,     0.00,  269.918,   17.275
 4318.00,     0.00,  277.056,   17.732
 4324.00,     0.00,  274.158,   17.546
 4329.00,     0.00,   273.41,   17.498
 4336.00,     0.00,  277.675,   17.771
 4339.00,     0.00,  274.792,   17.587
 4342.00,     0.00,  272.621,   17.448
 4346.00,     0.00,  274.751,   17.584
 4349.00,     0.00,  274.731,   17.583
 4355.00,     0.00,  273.266,   17.489
 4358.00,     0.00,  263.927,   16.891
 4361.00,     0.00,  275.381,   17.624
 4363.00,     0.00,  271.786,   17.394
 4366.00,     0.00,  273.204,   17.485
 4371.00,     0.00,   273.89,   17.529
 4373.00,     0.00,  269.579,   17.253
 4377.00,     0.00,  263.824,   16.885
 4381.00,     0.00,  264.515,   16.929
 4384.00,     0.00,  270.951,   17.341
 4388.00,     0.00,  275.232,   17.615
 4392.00,     0.00,  269.471,   17.246
 4399.00,     0.00,  268.719,   17.198
 4405.00,     0.00,  268.683,   17.196
 4409.00,     0.00,  265.073,   16.965
 4415.00,     0.00,  257.874,   16.504
 4421.00,     0.00,  262.139,   16.777
 4426.00,     0.00,  267.848,   17.142
 4432.00,     0.00,  264.228,   16.911
 4438.00,     0.00,  268.498,   17.184
 4442.00,     0.00,  268.472,   17.182
 4449.00,     0.00,  271.303,   17.363
 4455.00,     0.00,  266.966,   17.086
 4458.00,     0.00,  246.158,   15.754
 4463.00,     0.00,  249.717,   15.982
 4468.00,     0.00,  251.841,   16.118
 4472.00,     0.00,  251.816,   16.116
 4478.00,     0.00,  250.351,   16.022
 4481.00,     0.00,  258.216,   16.526
 4488.00,     0.00,  261.047,   22.046
 4490.00,     0.00,  250.996,   16.064
 4496.00,     0.00,  252.399,   16.154
 4501.00,     0.00,  250.218,   16.014
 4506.00,     0.00,  253.776,   16.242
 4515.00,     0.00,   265.91,   17.018
 4517.00,     0.00,  257.298,   16.467
 4520.00,     0.00,  255.844,   16.374
 4522.00,     0.00,  260.135,   16.649
 4527.00,     0.00,  257.959,   16.509
 4528.00,     0.00,  261.538,   16.738
 4533.00,     0.00,  260.073,   16.645
 4538.00,     0.00,  262.915,   16.827
 4541.00,     0.00, 261.7013,  24.1257
 4544.00,     0.00,  257.861,   16.503
 4545.00,     0.00,  264.307,   16.916
 4547.00,     0.00,   247.81,    15.86
 4551.00,     0.00,   255.67,   16.363
 4556.00,     0.00,  253.493,   16.224
 4560.00,     0.00,  253.468,   16.222
 4565.00,     0.00,  248.424,   15.899
 4569.00,     0.00,  251.988,   16.127
 4574.00,     0.00,  250.523,   16.033
 4580.00,     0.00,  251.926,   16.123
 4583.00,     0.00,  249.038,   15.938
 4588.00,     0.00,  246.862,   15.799
 4593.00,     0.00,  251.849,   16.118
 4595.00,     0.00,  262.591,   16.806
 4600.00,     0.00,  256.831,   16.437
 4605.00,     0.00,  252.499,    16.16
 4610.00,     0.00,  256.058,   16.388
 4613.00,     0.00,   253.17,   16.203
 4620.00,     0.00,  253.134,   16.201
 4625.00,     0.00,  251.669,   16.107
 4630.00,     0.00,  255.228,   16.335
 4632.00,     0.00,  250.195,   16.012
 4637.00,     0.00,  251.603,   16.103
 4642.00,     0.00,  251.572,   16.101
 4647.00,     0.00,  245.095,   15.686
 4648.00,     0.00,  250.107,   16.007
 4652.00,     0.00,  244.347,   15.638
 4660.00,     0.00,  245.023,   15.681
 4669.00,     0.00,  211.993,   13.568
 4676.00,     0.00,  143.855,   9.2067
 4679.00,     0.00,  174.662,   11.178
 4680.00,     0.00,  159.604,   10.215
 4682.00,     0.00, 215.1465,  29.4045
 4685.00,     0.00,  252.047,   16.131
 4687.00,     0.00,  282.501,   21.513
 4691.00,     0.00,  292.157,   18.698
 4705.00,     0.00,  270.571,   17.317
 4707.00,     0.00,  280.596,   17.958
 4712.00,     0.00,  258.349,   16.534
 4714.00,     0.00,  250.449,   16.029
 4718.00,     0.00,  245.411,   15.706
 4721.00,     0.00,  231.054,   14.787
 4723.00,     0.00,  221.008,   14.145
 4729.00,     0.00,  208.075,   13.317
 4730.00,     0.00, 193.0115,  17.6915
 4735.00,     0.00,   194.42,   12.443
 4736.00,     0.00,  184.379,    11.80
 4741.00,     0.00,  180.764,   11.569
 4750.00,     0.00,  179.279,   11.474
 4780.00,     0.00,  194.163,   12.426
 4802.00,     0.00,  211.243,    13.52
 4811.00,     0.00,  211.908,   13.562
 4819.00,     0.00,  210.434,   13.468
 4822.00,     0.00,  210.413,   13.466
 4827.00,     0.00,  212.538,   13.602
 4831.00,     0.00,  208.928,   13.371
 4837.00,     0.00,  209.614,   13.415
 4841.00,     0.00,  208.155,   13.322
 4846.00,     0.00,  211.713,    13.55
 4858.00,     0.00,  200.894,   12.857
 4861.00,     0.00,  204.458,   13.085
 4864.00,     0.00,  203.725,   13.038
 4868.00,     0.00,  198.687,   12.716
 4870.00,     0.00,  205.128,   13.128
 4871.00,     0.00,  209.424,   13.403
 4874.00,     0.00,   210.12,   13.448
 4877.00,     0.00,  207.237,   13.263
 4881.00,     0.00,  204.345,   13.078
 4882.00,     0.00,  212.224,   13.582
 4886.00,     0.00,  215.071,   13.765
 4889.00,     0.00,  212.188,    13.58
 4892.00,     0.00,  210.022,   13.441
 4894.00,     0.00,  212.874,   13.624
 4897.00,     0.00,  215.726,   13.806
 4901.00,     0.00,  212.122,   13.576
 4903.00,     0.00,   213.54,   13.667
 4908.00,     0.00,  213.514,   13.665
 4910.00,     0.00,  211.353,   13.527
 4913.00,     0.00,  215.639,   13.801
 4917.00,     0.00,  219.914,   14.074
 5028.00,     0.00,  214.986,   13.759
 5031.00,     0.00,  209.953,   13.437
 5035.00,     0.00, 214.9455,  16.0445
 5039.00,     0.00,  217.075,   13.893
 5044.00,     0.00,   219.20,   14.029
 5045.00,     0.00,   211.31,   13.524
 5049.00,     0.00,  211.284,   22.675
 5050.00,     0.00,  227.049,   14.531
 5051.00,     0.00,  209.123,   13.384
 5055.00,     0.00,  229.173,   14.667
 5057.00,     0.00,  229.158,   14.666
 5059.00,     0.00,  225.564,   14.436
 5062.00,     0.00,  221.964,   14.206
 5066.00,     0.00,  221.938,   14.204
 5071.00,     0.00,  220.479,   14.111
 5072.00,     0.00,  224.775,   14.386
 5077.00,     0.00,  220.446,   16.399
 5080.00,     0.00,  218.994,   14.016
 5086.00,     0.00,  218.963,   14.014
 5201.00,     0.00,  181.615,   11.623
 5204.00,     0.00,  174.043,   11.139
 5208.00,     0.00,  172.483,   11.039
 5210.00,     0.00,  170.936,    10.94
 5212.00,     0.00,  173.922,   11.131
 5216.00,     0.00,  170.102,   10.887
 5219.00,     0.00,  169.308,   10.836
 5223.00,     0.00,  168.501,   10.784
 5227.00,     0.00,  169.953,   10.877
 5229.00,     0.00,  168.407,   10.778
 5230.00,     0.00,  170.652,   10.922
 5233.00,     0.00,  164.587,   10.534
 5236.00,     0.00,  166.053,   10.627
 5238.00,     0.00,  169.038,   10.818
 5242.00,     0.00,  169.737,   10.863
 5245.00,     0.00,  167.437,   10.716
 5247.00,     0.00,  163.631,   10.472
 5250.00,     0.00,  169.615,   10.855
 5254.00,     0.00,  167.302,   10.707
 5258.00,     0.00,  171.766,   10.993
 5262.00,     0.00,  171.712,    10.99
 5265.00,     0.00,  171.671,   10.987
 5266.00,     0.00,  176.929,   11.323
 5270.00,     0.00,  172.343,    11.03
 5272.00,     0.00,  164.032,   10.498
 5275.00,     0.00,  179.053,   11.459
 5278.00,     0.00,  169.976,   10.878
 5281.00,     0.00,  181.231,   11.599
 5282.00,     0.00,  188.748,    12.08
 5285.00,     0.00,  184.942,   11.836
 5290.00,     0.00, 188.2635,  14.8535
 5294.00,     0.00,  188.586,    12.07
 5296.00,     0.00,   193.83,   12.405
 5298.00,     0.00,   191.53,   12.258
 5301.00,     0.00,  193.749,    12.40
 5302.00,     0.00,  185.452,   11.869
 5305.00,     0.00,   170.35,   10.902
 5307.00,     0.00,   168.05,   10.755
 5310.00,     0.00,  161.232,   10.319
 5314.00,     0.00,  161.178,   10.315
 5317.00,     0.00,  162.643,   10.409
 5319.00,     0.00,  169.394,   10.841
 5323.00,     0.00,  173.105,   11.079
 5326.00,     0.00,  170.805,   10.932
 5330.00,     0.00,  172.244,   11.024
 5333.00,     0.00,  174.462,   11.166
 5337.00,     0.00,  175.914,   11.258
 5339.00,     0.00,  163.838,   10.486
 5341.00,     0.00,  168.329,   10.773
 5344.00,     0.00,  166.769,   10.673
 5347.00,     0.00,  165.975,   10.622
 5350.00,     0.00,  162.923,   10.427
 5353.00,     0.00,  156.104,   9.9907
 5358.00,     0.00,  159.049,   10.179
 5359.00,     0.00,   153.75,     9.84
 5362.00,     0.00,  148.438,     9.50
 5366.00,     0.00,  145.372,   9.3038
 5369.00,     0.00,   140.06,   8.9638
 5372.00,     0.00,  134.734,    8.623
 5373.00,     0.00,  128.696,   8.2365
 5375.00,     0.00,  115.867,   7.4155
 5376.00,     0.00,  112.841,   7.2218
 5377.00,     0.00,  100.012,  16.8173
 5378.00,     0.00,   72.122,   4.6158
 5380.00,     0.00,   75.107,   4.8068
 5382.00,     0.00,  118.771,   7.6013
 5385.00,     0.00,  191.805,   12.276
 5386.00,     0.00,  136.051,   8.7073
 5387.00,     0.00,  219.655,   14.058
 5389.00,     0.00,  223.393,   14.297
 5391.00,     0.00,  227.884,   14.585
 5392.00,     0.00,  222.586,   14.246
 5393.00,     0.00,   209.77,   13.425
 5398.00,     0.00,  204.431,   16.288
 5399.00,     0.00,  190.096,   12.166
 5400.00,     0.00,   196.86,   12.599
 5402.00,     0.00,  182.525,   11.682
 5403.00,     0.00,   177.24,   11.343
 5405.00,     0.00,  170.428,   14.921
 5407.00,     0.00, 146.7937,  24.6757
 5410.00,     0.00, 118.3785,  14.7875
 5411.00,     0.00,   114.60,   7.3344
 5413.00,     0.00,  119.844,     7.67
 5414.00,     0.00,  152.226,   9.7425
 5415.00,     0.00, 174.8045,  14.3925
 5417.00,     0.00, 194.1107,  19.9103
 5419.00,     0.00,  207.146,   13.257
 5424.00,     0.00,  200.287,   12.818
 5428.00,     0.00,  193.455,   12.381
 5429.00,     0.00,  189.676,   12.139
 5435.00,     0.00,  182.051,   11.651
 5443.00,     0.00,  172.906,   11.066
 5450.00,     0.00,  159.242,   10.191
 5454.00,     0.00,  142.607,   9.1268
 5457.00,     0.00,  117.716,   7.5338
 5459.00,     0.00,   104.12,   6.6637
 5463.00,     0.00,  151.522,   22.518
 5466.00,     0.00,  191.031,   18.235
 5470.00,     0.00,  195.872,   12.536
 5472.00,     0.00,   189.82,   12.148
 5474.00,     0.00,  189.027,   12.098
 5477.00,     0.00,  182.209,   11.661
 5480.00,     0.00,  183.674,   11.755
 5483.00,     0.00,   182.88,   11.704
 5485.00,     0.00,  176.076,   11.269
 5487.00,     0.00,  179.047,   11.459
 5490.00,     0.00,  175.241,   11.215
 5493.00,     0.00,  178.213,   11.406
 5496.00,     0.00,  173.654,   11.114
 5499.00,     0.00,  171.354,   10.967
 5500.00,     0.00,  169.082,   10.821
 5503.00,     0.00,   172.04,   11.011
 5506.00,     0.00,  170.493,   10.912
 5509.00,     0.00,  174.218,    11.15
 5513.00,     0.00,  171.151,   10.954
 5515.00,     0.00,  171.124,   10.952
 5517.00,     0.00,  174.109,   11.143
 5519.00,     0.00,  170.317,    10.90
 5522.00,     0.00,   169.51,   10.849
 5525.00,     0.00,  169.469,   10.846
 5527.00,     0.00,  172.454,   11.037
 5530.00,     0.00,   173.92,   11.131
 5533.00,     0.00,  170.114,   10.887
 5537.00,     0.00,  168.554,   10.787
 5539.00,     0.00,  165.514,   10.593
 5541.00,     0.00,  167.733,   10.735
 5545.00,     0.00,  168.432,    10.78
 5550.00,     0.00,   169.87,   10.872
 5551.00,     0.00,  160.067,   10.244
 5554.00,     0.00,  164.545,   10.531
 5557.00,     0.00,  163.751,    10.48
 5559.00,     0.00,  160.698,   10.285
 5563.00,     0.00,   162.15,   10.378
 5566.00,     0.00,  163.616,   10.471
 5567.00,     0.00,  154.566,   9.8922
 5569.00,     0.00,  163.575,   10.469
 5574.00,     0.00,  163.508,   10.465
 5578.00,     0.00,  164.207,   10.509
 5580.00,     0.00,  165.672,   10.603
 5584.00,     0.00,  165.618,    10.60
 5586.00,     0.00,  164.085,   10.501
 5588.00,     0.00,   167.07,   10.692
 5590.00,     0.00,  165.537,   10.594
 5594.00,     0.00,  166.989,   10.687
 5597.00,     0.00,  170.714,   10.926
 5598.00,     0.00,  165.415,   10.587
 5602.00,     0.00,  166.867,   10.679
 5608.00,     0.00,  166.786,   10.674
 5613.00,     0.00,  165.965,   10.622
 5619.00,     0.00,   165.87,   10.616
 5623.00,     0.00,   164.31,   10.516
 5629.00,     0.00,  164.982,   10.559
 5634.00,     0.00,  162.655,    10.41
 5638.00,     0.00,  160.705,   13.891
 5643.00,     0.00,  158.001,   10.112
 5649.00,     0.00,   157.92,   10.107
 5653.00,     0.00,  160.125,   10.248
 5656.00,     0.00,  161.577,   10.341
 5659.00,     0.00,  158.524,   10.146
 5663.00,     0.00,   158.47,   10.142
 5666.00,     0.00,  156.923,   10.043
 5669.00,     0.00,  157.636,   10.089
 5673.00,     0.00,  161.347,   10.326
 5676.00,     0.00,  159.034,   10.178
 5678.00,     0.00,  152.229,   9.7427
 5680.00,     0.00,  149.943,   9.5964
 5682.00,     0.00,  144.644,   9.2572
 5684.00,     0.00,  142.358,   9.1109
 5686.00,     0.00,  143.824,   9.2047
 5690.00,     0.00,   143.77,   9.2013
 5692.00,     0.00,  139.224,   8.9103
 5694.00,     0.00,  143.715,   9.1978
 5698.00,     0.00,  139.143,   8.9052
 5701.00,     0.00,  133.831,   8.5652
 5702.00,     0.00,  139.842,   8.9499
 5706.00,     0.00,  148.071,   9.4765
 5708.00,     0.00,  145.019,   9.2812
 5711.00,     0.00,  136.694,   8.7484
 5714.00,     0.00,  138.913,   8.8904
 5716.00,     0.00,  145.663,   9.3224
 5718.00,     0.00,  147.895,   9.4653
 5721.00,     0.00,   151.62,   9.7037
 5723.00,     0.00,  155.358,   9.9429
 5729.00,     0.00,  153.771,   9.8413
 5731.00,     0.00,  152.977,   9.7905
 5734.00,     0.00,  154.443,   9.8844
 5737.00,     0.00,  154.402,   9.8817
 5742.00,     0.00,  155.841,   9.9738
 5744.00,     0.00,  152.802,   9.7793
 5747.00,     0.00,  161.798,   10.355
 5750.00,     0.00,  154.213,   9.8696
 5753.00,     0.00,  133.086,   8.5175
 5756.00,     0.00,  133.799,   8.5631
 5757.00,     0.00,  138.304,   8.8515
 5759.00,     0.00,  140.536,   8.9943
 5762.00,     0.00,  141.248,   9.0399
 5766.00,     0.00,  139.675,   8.9392
 5768.00,     0.00,  135.882,   8.6964
 5771.00,     0.00,   130.57,   8.3565
 5774.00,     0.00,  129.023,   8.2575
 5776.00,     0.00,  125.971,   8.0621
 5778.00,     0.00,  115.401,   7.3857
 5781.00,     0.00,  107.829,   6.9011
 5782.00,     0.00,   99.519,   6.3692
 5787.00,     0.00,   85.896,   5.4973
 5789.00,     0.00,  104.695,   6.7005
 5790.00,     0.00,  122.769,   7.8572
 5791.00,     0.00,   96.384,   6.1686
 5795.00,     0.00,   84.281,    5.394
 5796.00,     0.00,   72.958,   4.6693
 5800.00,     0.00,   90.978,   5.8226
 5803.00,     0.00,  133.122,   8.5198
 5804.00,     0.00,  180.565,   11.556
 5808.00,     0.00,  183.524,   11.746
 5810.00,     0.00,  175.966,   11.262
 5813.00,     0.00,  169.901,   10.874
 5818.00,     0.00,  181.129,   11.592
 5819.00,     0.00,  176.584,   11.301
 5820.00,     0.00,  170.546,   10.915
 5824.00,     0.00,  172.751,   11.056
 5827.00,     0.00,  177.228,   11.343
 5831.00,     0.00,  169.644,   10.857
 5836.00,     0.00,  170.315,    10.90
 5841.00,     0.00,  169.495,   10.848
 5844.00,     0.00,   170.96,   10.941
 5847.00,     0.00,  167.907,   10.746
 5852.00,     0.00,  166.334,   10.645
 5856.00,     0.00,  165.513,   10.593
 5861.00,     0.00,  166.198,   10.637
 5865.00,     0.00,  163.885,   10.489
 5867.00,     0.00,  160.093,   10.246
 5871.00,     0.00,  164.557,   10.532
 5875.00,     0.00,  162.983,   10.431
 5877.00,     0.00,  156.931,   10.044
 5881.00,     0.00,  158.383,   10.137
 5884.00,     0.00,  161.355,   10.327
 5885.00,     0.00,   156.07,   9.9885
 5887.00,     0.00,  155.276,   9.9377
 5891.00,     0.00,  153.716,   9.8378
 5894.00,     0.00,  149.157,    9.546
 5897.00,     0.00,  146.857,   9.3988
 5901.00,     0.00,  143.791,   9.2026
 5904.00,     0.00,  139.972,   8.9582
 5912.00,     0.00, 131.5795,   10.024
 5914.00,     0.00,  124.008,   7.9365
 5918.00,     0.00,  120.942,   7.7403
 5921.00,     0.00,  116.383,   7.4485
 5923.00,     0.00,  111.837,   7.1576
 5927.00,     0.00,  104.992,   6.7195
 5931.00,     0.00,   97.784,  12.2676
 5935.00,     0.00,   91.329,   5.8451
 5936.00,     0.00,   80.759,   5.1686
 5940.00,     0.00,   78.445,   5.0205
 5943.00,     0.00,   67.109,    4.295
 5945.00,     0.00,   63.303,   4.0514
 5948.00,     0.00,   57.991,   3.7114
 5951.00,     0.00,   57.197,   3.6606
 5952.00,     0.00,   64.714,   4.1417
EndData:

