Comment:    Automatically converted from EXFOR
            by the IAEA-NDS EXFOR Web-Retrieval System
            program version-2015/02/20, by V.Zerkin.
            "A Study of Nuclear Levels in 32S by the Reaction
             28Si(alpha,alpha)28Si and Single Particle Potential
             Representation"
            M.K.Leung
            EXFOR: C2100008    Created: 2014-04-14  Updated: 2014-11-13
            X4Reaction:14-SI-28(A,EL)14-SI-28,,DA; X4Points:700
            LevelEnergy: 0.00

Version:      R33
X4Number:     C2100008
Source:       M.K.Leung(1972), Thes. Thesis or dissertation, Name.Leung
Reaction:     28Si(a,a0)28Si
Distribution: Energy
Sigfactors:   1.00, 0.00
Enfactors:    1.00, 0.00, 0.00, 0.00
Units:        mb
Composition:
Masses:       4.0, 28.0, 4.0, 28.0
Zeds:         2, 14, 2, 14
Qvalue:       0.0, 0.00, 0.00, 0.00, 0.00
Theta:        118
Data:
 2494.00,     0.00,  381.898,   26.351
 2497.00,     0.00,  400.608,   27.642
 2506.00,     0.00,  402.539,   27.775
 2511.00,     0.00,  396.963,    27.39
 2517.00,     0.00,  376.445,   25.975
 2530.00,     0.00,   370.92,   25.593
 2536.00,     0.00,  359.747,   24.823
 2539.00,     0.00,  346.685,   23.921
 2545.00,     0.00,  354.201,    24.44
 2550.00,     0.00,  361.708,   24.958
 2558.00,     0.00,  363.628,    25.09
 2563.00,     0.00,  341.231,   23.545
 2572.00,     0.00,  333.817,   23.033
 2577.00,     0.00,   330.11,   22.778
 2585.00,     0.00,  341.375,   23.555
 2586.00,     0.00,  328.302,   22.653
 2596.00,     0.00,  345.184,   23.818
 2600.00,     0.00,  332.132,   22.917
 2604.00,     0.00,  320.939,   22.145
 2611.00,     0.00,  330.335,   22.793
 2618.00,     0.00,  339.721,   23.441
 2624.00,     0.00,  332.286,   22.928
 2627.00,     0.00,  321.093,   22.155
 2629.00,     0.00,  332.317,    22.93
 2636.00,     0.00,  337.975,    23.32
 2641.00,     0.00,  328.661,   22.678
 2646.00,     0.00,  319.347,   22.035
 2652.00,     0.00,  313.781,   21.651
 2662.00,     0.00,  321.318,   22.171
 2668.00,     0.00,  310.145,    21.40
 2673.00,     0.00,  297.093,   20.499
 2679.00,     0.00,  289.658,   19.986
 2682.00,     0.00,  299.023,   20.633
 2693.00,     0.00,  293.488,   20.251
 2699.00,     0.00,  297.267,   20.511
 2704.00,     0.00,  286.084,    19.74
 2710.00,     0.00,  284.256,   19.614
 2718.00,     0.00,  280.569,   19.359
 2725.00,     0.00,  286.217,   19.749
 2729.00,     0.00,  276.956,    19.11
 2737.00,     0.00,  265.317,   18.307
 2744.00,     0.00,  272.045,   18.771
 2751.00,     0.00,  272.091,   18.774
 2758.00,     0.00,  283.831,   19.584
 2762.00,     0.00,  268.823,   18.549
 2768.00,     0.00,  278.883,   19.243
 2778.00,     0.00,  275.606,   19.017
 2785.00,     0.00,  275.652,    19.02
 2790.00,     0.00,  270.677,   18.677
 2800.00,     0.00,  277.423,   19.142
 2807.00,     0.00,  284.151,   19.606
 2814.00,     0.00,  287.538,    19.84
 2816.00,     0.00,  280.865,    19.38
 2824.00,     0.00,  274.238,   18.922
 2828.00,     0.00,  267.583,   18.463
 2835.00,     0.00,  260.946,   18.005
 2842.00,     0.00,  255.981,   17.663
 2851.00,     0.00,  259.377,   17.897
 2855.00,     0.00,   246.04,   16.977
 2867.00,     0.00,  257.816,   17.789
 2877.00,     0.00,  252.868,   17.448
 2925.00,     0.00,  241.486,   16.663
 2929.00,     0.00,   233.16,   16.088
 2935.00,     0.00,  234.868,   16.206
 2942.00,     0.00,  211.526,   14.595
 2946.00,     0.00,  214.894,   14.828
 2956.00,     0.00,  213.288,   14.717
 2962.00,     0.00,  216.665,    14.95
 2969.00,     0.00,   213.37,   14.723
 2977.00,     0.00,  220.107,   15.187
 2983.00,     0.00,  233.508,   16.112
 2990.00,     0.00,  225.201,   15.539
 2998.00,     0.00,  228.598,   15.773
 2999.00,     0.00,  215.242,   14.852
 3002.00,     0.00,  220.272,   15.199
 3008.00,     0.00,  226.991,   15.662
 3012.00,     0.00,  222.007,   15.318
 3014.00,     0.00,  208.651,   14.397
 3022.00,     0.00,  203.695,   14.055
 3026.00,     0.00,   225.44,   15.555
 3030.00,     0.00,  208.761,   14.405
 3040.00,     0.00,  203.814,   14.063
 3044.00,     0.00,  210.523,   14.526
 3049.00,     0.00,  212.222,   14.643
 3051.00,     0.00,  220.593,   15.221
 3056.00,     0.00,  217.279,   14.992
 3058.00,     0.00,  212.286,   14.648
 3065.00,     0.00,  227.367,   15.688
 3072.00,     0.00,  211.542,   29.776
 3078.00,     0.00,  215.755,   14.887
 3082.00,     0.00,  220.794,   15.235
 3085.00,     0.00,  210.789,   14.544
 3092.00,     0.00,  232.552,   16.046
 3100.00,     0.00,  230.937,   15.935
 3109.00,     0.00,  229.321,   15.823
 3114.00,     0.00,  202.629,   13.981
 3123.00,     0.00,  196.001,   13.524
 3126.00,     0.00,  211.055,   14.563
 3130.00,     0.00,  224.447,   15.487
 3131.00,     0.00,  199.397,   13.758
 3137.00,     0.00,  206.116,   14.222
 3145.00,     0.00,   202.83,   13.995
 3154.00,     0.00,  194.532,   13.423
 3159.00,     0.00,  186.216,   12.849
 3165.00,     0.00,  199.617,   13.774
 3172.00,     0.00,  192.981,   13.316
 3180.00,     0.00,  196.377,    13.55
 3193.00,     0.00,  206.483,   14.247
 3200.00,     0.00,  213.211,   14.712
 3206.00,     0.00,  196.542,   13.561
 3210.00,     0.00,  179.863,   12.411
 3215.00,     0.00,  191.594,    13.22
 3220.00,     0.00,  199.974,   13.798
 3224.00,     0.00,  215.037,   14.838
 3229.00,     0.00,  215.074,    14.84
 3234.00,     0.00,   213.43,   14.727
 3238.00,     0.00,   220.14,    15.19
 3243.00,     0.00,  211.824,   14.616
 3249.00,     0.00,  216.872,   14.964
 3256.00,     0.00,  208.565,   14.391
 3263.00,     0.00,  208.611,   14.394
 3271.00,     0.00,  215.348,   14.859
 3283.00,     0.00,  208.739,   14.403
 3302.00,     0.00,  190.491,   13.144
 3304.00,     0.00,  208.877,   14.413
 3314.00,     0.00,  187.223,   12.918
 3328.00,     0.00,  188.986,    13.04
 3335.00,     0.00,  200.725,    13.85
 3345.00,     0.00,  184.084,   12.702
 3346.00,     0.00,  200.799,   13.855
 3353.00,     0.00,  177.456,   12.244
 3354.00,     0.00,   190.83,   13.167
 3363.00,     0.00,  182.532,   12.595
 3370.00,     0.00,  185.919,   12.828
 3374.00,     0.00,  190.958,   13.176
 3381.00,     0.00,   179.31,   12.372
 3387.00,     0.00,  191.041,   13.182
 3395.00,     0.00,  191.096,   13.186
 3415.00,     0.00,  174.518,   12.042
 3422.00,     0.00,  186.258,   12.852
 3448.00,     0.00,  171.397,   11.826
 3452.00,     0.00,  179.777,   12.405
 3461.00,     0.00,   173.15,   11.947
 3465.00,     0.00,  164.825,   11.373
 3474.00,     0.00,  176.573,   12.184
 3478.00,     0.00,  188.295,   12.992
 3479.00,     0.00,  166.587,   11.495
 3489.00,     0.00,  176.674,   12.191
 3493.00,     0.00,  163.337,    11.27
 3499.00,     0.00,  173.397,   11.964
 3507.00,     0.00,  165.099,   11.392
 3517.00,     0.00,  163.493,   11.281
 3520.00,     0.00,  171.864,   11.859
 3527.00,     0.00,  180.263,   12.438
 3528.00,     0.00,   175.26,   12.093
 3532.00,     0.00,  180.299,   12.441
 3538.00,     0.00,  188.689,    13.02
 3546.00,     0.00,  167.026,   11.525
 3556.00,     0.00,  175.443,   12.106
 3562.00,     0.00,  162.115,   11.186
 3572.00,     0.00,  167.191,   11.536
 3583.00,     0.00,  178.958,   12.348
 3591.00,     0.00,  163.978,   11.314
 3598.00,     0.00,  157.342,   10.857
 3605.00,     0.00,   165.74,   11.436
 3611.00,     0.00,  170.789,   11.784
 3626.00,     0.00,  157.525,   10.869
 3632.00,     0.00,  149.209,   10.295
 3638.00,     0.00,  154.257,   10.644
 3643.00,     0.00,  164.317,   11.338
 3649.00,     0.00,  156.001,   10.764
 3652.00,     0.00,  151.008,    10.42
 3659.00,     0.00,  161.077,   11.114
 3668.00,     0.00,  156.129,   10.773
 3678.00,     0.00,  154.523,   10.662
 3685.00,     0.00,  156.239,    10.78
 3694.00,     0.00,  156.294,   10.784
 3695.00,     0.00,  162.985,   11.246
 3704.00,     0.00,  153.017,   10.558
 3718.00,     0.00,  146.426,   10.103
 3729.00,     0.00,  141.488,   9.7627
 3730.00,     0.00,   149.85,    10.34
 3739.00,     0.00,  143.223,   9.8824
 3746.00,     0.00,  154.962,   10.692
 3753.00,     0.00,  151.667,   10.465
 3761.00,     0.00,  151.722,   10.469
 3772.00,     0.00,  141.772,   9.7823
 3784.00,     0.00,  141.845,   9.7873
 3805.00,     0.00,   135.30,   9.3357
 3809.00,     0.00,  150.363,   10.375
 3820.00,     0.00,  143.754,    9.919
 3826.00,     0.00,  137.108,   9.4605
 3834.00,     0.00,  147.186,   10.156
 3847.00,     0.00,  132.234,   9.1241
 3852.00,     0.00,  140.623,    9.703
 3858.00,     0.00,  117.272,   8.0918
 3865.00,     0.00,   87.248,   6.0201
 3868.00,     0.00,  105.642,   7.2893
 3872.00,     0.00,  127.387,   8.7897
 3879.00,     0.00,  135.786,   9.3692
 3887.00,     0.00,  137.511,   9.4883
 3891.00,     0.00,  149.232,   10.297
 3914.00,     0.00,  144.367,   9.9613
 3919.00,     0.00,  146.074,   10.079
 3925.00,     0.00,  137.758,   9.5053
 3935.00,     0.00,  141.164,   9.7403
 3941.00,     0.00,  136.188,    9.397
 3953.00,     0.00,  131.259,   9.0569
 3956.00,     0.00,  116.242,   8.0207
 3962.00,     0.00,  121.291,   8.3691
 3970.00,     0.00,  128.028,   8.8339
 3978.00,     0.00,  124.742,   8.6072
 3990.00,     0.00,  123.144,   8.4969
 3997.00,     0.00,  114.837,   7.9238
 4004.00,     0.00,  108.201,   7.4659
 4009.00,     0.00,  119.932,   8.2753
 4015.00,     0.00,   126.65,   8.7389
 4025.00,     0.00,  131.726,   9.0891
 4033.00,     0.00,  136.793,   9.4387
 4035.00,     0.00,  128.546,   8.8697
 4040.00,     0.00,   131.23,   9.0549
 4044.00,     0.00,  127.815,   8.8192
 4047.00,     0.00,  130.504,   9.0048
 4052.00,     0.00,  129.795,   8.9559
 4057.00,     0.00,  128.413,   8.8605
 4059.00,     0.00,  131.785,   9.0932
 4064.00,     0.00,  133.108,   9.1845
 4067.00,     0.00,  128.349,   8.8561
 4070.00,     0.00,  129.006,   8.9014
 4074.00,     0.00,  127.629,   8.8064
 4077.00,     0.00,  125.575,   8.6647
 4081.00,     0.00,  128.264,   8.8502
 4083.00,     0.00,  123.505,   8.5218
 4085.00,     0.00,  128.915,   8.8951
 4088.00,     0.00,  130.254,   8.9875
 4089.00,     0.00,  127.533,   8.7998
 4093.00,     0.00,  124.802,   8.6113
 4096.00,     0.00,  124.103,   8.5631
 4100.00,     0.00,  123.398,   8.5145
 4105.00,     0.00,  122.694,   8.4659
 4110.00,     0.00,   123.34,   8.5105
 4114.00,     0.00,   121.28,   8.3683
 4118.00,     0.00,  125.319,    8.647
 4123.00,     0.00,   120.55,    8.318
 4127.00,     0.00,  119.168,   8.2226
 4131.00,     0.00,  121.174,    8.361
 4135.00,     0.00,  117.759,   8.1254
 4141.00,     0.00,   119.76,   8.2634
 4145.00,     0.00,  116.346,   8.0279
 4150.00,     0.00,  119.024,   8.2127
 4153.00,     0.00,  122.391,    8.445
 4156.00,     0.00,  117.632,   8.1166
 4161.00,     0.00,  118.277,   8.1611
 4165.00,     0.00,   112.83,   7.7853
 4171.00,     0.00,  116.181,   8.0165
 4175.00,     0.00,  114.804,   7.9215
 4177.00,     0.00,  111.405,   7.6869
 4180.00,     0.00,  109.351,   7.5452
 4183.00,     0.00,  108.652,    7.497
 4184.00,     0.00,  104.581,   7.2161
 4186.00,     0.00,    96.44,   6.6544
 4188.00,     0.00,   93.713,   6.4662
 4189.00,     0.00,  103.872,   7.1672
 4190.00,     0.00,  111.998,   7.7279
 4192.00,     0.00,  126.217,    8.709
 4193.00,     0.00,   135.02,   9.3164
 4195.00,     0.00,  116.037,   8.0066
 4196.00,     0.00,  138.392,    9.549
 4198.00,     0.00,  135.666,    9.361
 4200.00,     0.00,  132.267,   9.1264
 4202.00,     0.00,  129.546,   8.9387
 4203.00,     0.00,  126.825,   8.7509
 4206.00,     0.00,  126.809,   8.7498
 4208.00,     0.00,  125.438,   8.6552
 4213.00,     0.00,  124.734,   8.6066
 4216.00,     0.00,  123.357,   8.5116
 4219.00,     0.00,  122.659,   8.4635
 4223.00,     0.00,  123.992,   8.5554
 4225.00,     0.00,  120.588,   8.3206
 4229.00,     0.00,  117.857,   8.1321
 4231.00,     0.00,  117.163,   8.0842
 4237.00,     0.00,  116.454,   8.0353
 4241.00,     0.00,  115.749,   7.9867
 4245.00,     0.00,  115.045,   7.9381
 4249.00,     0.00,  112.986,    7.796
 4253.00,     0.00,  110.254,   7.6075
 4257.00,     0.00,  108.872,   7.5122
 4268.00,     0.00,   95.929,   6.6191
 4274.00,     0.00,    90.47,   6.2424
 4281.00,     0.00,   90.428,   6.2395
 4287.00,     0.00,   96.489,   6.6577
 4291.00,     0.00,   89.686,   6.1883
 4296.00,     0.00,  103.212,   7.1216
 4302.00,     0.00,  103.175,   7.1191
 4308.00,     0.00,  103.132,   7.1161
 4313.00,     0.00,  105.816,   7.3013
 4319.00,     0.00,  105.779,   7.2988
 4325.00,     0.00,  107.097,   7.3897
 4331.00,     0.00,  106.382,   7.3404
 4338.00,     0.00,  104.306,   7.1971
 4341.00,     0.00,  100.897,   6.9619
 4346.00,     0.00,   98.832,   6.8194
 4350.00,     0.00,   95.418,   6.5838
 4354.00,     0.00,   89.298,   6.1616
 4356.00,     0.00,   83.183,   5.7396
 4358.00,     0.00,   73.686,   5.0843
 4363.00,     0.00,   68.234,   4.7081
 4366.00,     0.00,  102.098,   7.0448
 4368.00,     0.00,  144.099,   9.9428
 4370.00,     0.00,  165.771,   11.438
 4372.00,     0.00,  154.914,   10.689
 4375.00,     0.00,  144.734,   9.9866
 4377.00,     0.00,  137.942,    9.518
 4380.00,     0.00,  132.505,   9.1428
 4381.00,     0.00,  126.396,   8.7213
 4387.00,     0.00,  122.976,   8.4853
 4392.00,     0.00,  116.162,   8.0152
 4397.00,     0.00,  106.644,   7.3584
 4403.00,     0.00,  106.607,   7.3559
 4409.00,     0.00,  101.154,   6.9796
 4415.00,     0.00,   96.368,   6.6494
 4421.00,     0.00,  101.757,   7.0212
 4427.00,     0.00,   104.43,   7.2057
 4431.00,     0.00,  107.792,   7.4376
 4437.00,     0.00,  111.142,   7.6688
 4444.00,     0.00,  111.777,   7.7126
 4448.00,     0.00,  111.073,    7.664
 4455.00,     0.00,  111.031,   7.6611
 4457.00,     0.00,  102.883,   7.0989
 4463.00,     0.00,  102.169,   7.0497
 4467.00,     0.00,  106.891,   7.3755
 4472.00,     0.00,  104.148,   7.1862
 4476.00,     0.00,  105.477,   7.2779
 4481.00,     0.00,  104.773,   7.2293
 4485.00,     0.00,  108.812,    7.508
 4488.00,     0.00,   106.08,   7.3195
 4494.00,     0.00,   104.01,   7.1767
 4499.00,     0.00,  102.628,   7.0813
 4502.00,     0.00,  109.383,   7.5474
 4515.00,     0.00,  101.172,   6.9809
 4516.00,     0.00,  106.587,   7.3545
 4521.00,     0.00,   90.293,   6.2302
 4523.00,     0.00,   91.632,   6.3226
 4526.00,     0.00,  101.102,    6.976
 4530.00,     0.00,  101.753,    7.021
 4535.00,     0.00,  103.077,   7.1123
 4540.00,     0.00, 102.3695,  12.8612
 4545.00,     0.00,  100.308,   6.9213
 4550.00,     0.00,  102.986,    7.106
 4553.00,     0.00,   99.577,   6.8708
 4558.00,     0.00,  100.228,   6.9157
 4563.00,     0.00,  100.196,   6.9135
 4568.00,     0.00,  102.197,   7.0516
 4572.00,     0.00,   98.105,   6.7692
 4576.00,     0.00,  100.794,   6.9548
 4581.00,     0.00,  100.762,   6.9526
 4587.00,     0.00,   94.626,   6.5292
 4592.00,     0.00,    98.66,   6.8075
 4601.00,     0.00,   85.727,   5.9152
 4607.00,     0.00,   85.012,   5.8658
 4616.00,     0.00,   84.959,   5.8622
 4622.00,     0.00,    91.02,   6.2804
 4636.00,     0.00,   80.765,   5.5728
 4643.00,     0.00,   82.755,   5.7101
 4651.00,     0.00,   83.385,   5.7536
 4657.00,     0.00,   79.282,   5.4705
 4663.00,     0.00,   79.923,   5.5147
 4667.00,     0.00,   79.218,    5.466
 4671.00,     0.00,   81.902,   5.6512
 4674.00,     0.00,   79.176,   5.4631
 4677.00,     0.00,   71.701,   4.9474
 4684.00,     0.00,   72.336,   4.9912
 4689.00,     0.00,   70.949,   4.8955
 4691.00,     0.00,   65.517,   4.5207
 4698.00,     0.00,   63.442,   4.3775
 4701.00,     0.00,   61.388,   4.2358
 4713.00,     0.00,   51.149,   3.5293
 4724.00,     0.00,    51.08,   3.5245
 4731.00,     0.00,   56.458,   3.8956
 4735.00,     0.00,   61.516,   6.7771
 4738.00,     0.00,   67.257,   4.6407
 4739.00,     0.00,   71.995,   4.9677
 4745.00,     0.00,   75.346,   5.1989
 4749.00,     0.00,   81.423,   5.6182
 4752.00,     0.00,    84.79,   5.8505
 4759.00,     0.00,   83.392,    5.754
 4766.00,     0.00,   90.126,   6.2187
 4777.00,     0.00,   89.379,   6.1672
 4781.00,     0.00,   85.964,   5.9315
 4786.00,     0.00,   89.998,   6.2099
 4791.00,     0.00,   89.971,    6.208
 4801.00,     0.00,    91.94,   6.3439
 4809.00,     0.00,   91.215,   6.2938
 4820.00,     0.00,   89.113,   6.1488
 4828.00,     0.00,   87.027,   6.0049
 4838.00,     0.00,   82.902,   5.7202
 4843.00,     0.00,   83.548,   5.7648
 4849.00,     0.00,   84.188,    5.809
 4852.00,     0.00,   87.555,   6.0413
 4855.00,     0.00,   82.118,   5.6661
 4858.00,     0.00,   81.419,   5.6179
 4861.00,     0.00,   78.693,   5.4298
 4864.00,     0.00,   75.961,   5.2413
 4866.00,     0.00,   71.885,   4.9601
 4873.00,     0.00,   88.783,    6.126
 4874.00,     0.00,   86.739,    5.985
 4877.00,     0.00,   77.914,   5.3761
 4880.00,     0.00,   77.898,    5.375
 4883.00,     0.00,   85.331,   5.8878
 4886.00,     0.00,   81.927,    5.653
 4889.00,     0.00,   83.261,    5.745
 4893.00,     0.00,   89.332,   6.1639
 4899.00,     0.00,   83.874,   5.7873
 4905.00,     0.00,   89.263,   6.1591
 4909.00,     0.00,   89.914,   6.2041
 4913.00,     0.00,   92.598,   6.3893
 5024.00,     0.00,   85.135,   5.8743
 5028.00,     0.00,   91.885,   6.3401
 5030.00,     0.00,   85.093,   5.8714
 5034.00,     0.00,   88.459,   6.1037
 5039.00,     0.00,   88.428,   6.1015
 5042.00,     0.00,   90.444,   6.2406
 5047.00,     0.00,  88.7185,  13.0033
 5048.00,     0.00,   87.019,   6.0043
 5051.00,     0.00,   89.708,   6.1899
 5054.00,     0.00,   86.977,   6.0014
 5060.00,     0.00,   84.912,   5.8589
 5062.00,     0.00,   87.606,   6.0448
 5066.00,     0.00,   89.612,   6.1832
 5070.00,     0.00,   87.558,   6.0415
 5072.00,     0.00,   86.865,   5.9937
 5076.00,     0.00,   84.811,    5.852
 5079.00,     0.00,   86.145,    5.944
 5083.00,     0.00,   86.123,   5.9425
 5201.00,     0.00,   79.157,   5.4618
 5205.00,     0.00,   77.333,    5.336
 5207.00,     0.00,   80.242,   5.5367
 5209.00,     0.00,   76.676,   5.2906
 5212.00,     0.00,   80.162,   5.5312
 5215.00,     0.00,   76.584,   5.2843
 5220.00,     0.00,   77.693,   5.3608
 5222.00,     0.00,   77.647,   5.3576
 5225.00,     0.00,   77.601,   5.3545
 5228.00,     0.00,   74.024,   5.1077
 5231.00,     0.00,   78.687,   5.4294
 5234.00,     0.00,   73.932,   5.1013
 5238.00,     0.00,   73.875,   5.0974
 5242.00,     0.00,   74.406,    5.134
 5244.00,     0.00,   72.017,   4.9692
 5245.00,     0.00,   76.704,   5.2926
 5248.00,     0.00,   73.126,   5.0457
 5252.00,     0.00,   75.423,   5.2042
 5256.00,     0.00,   71.234,   4.9151
 5260.00,     0.00,   75.309,   5.1963
 5263.00,     0.00,   76.429,   5.2736
 5266.00,     0.00,   76.972,   5.3111
 5269.00,     0.00,   75.749,   5.2267
 5271.00,     0.00,    73.96,   5.1032
 5274.00,     0.00,   72.136,   4.9774
 5276.00,     0.00,   75.057,   5.1789
 5279.00,     0.00,   71.479,   4.9321
 5280.00,     0.00,   76.754,    5.296
 5284.00,     0.00,   78.463,   5.4139
 5286.00,     0.00,   73.731,   5.0874
 5289.00,     0.00,   73.085,   5.0429
 5291.00,     0.00,   70.696,    4.878
 5293.00,     0.00,   68.907,   4.7546
 5296.00,     0.00,   64.152,   4.4265
 5298.00,     0.00,   50.579,     3.49
 5301.00,     0.00,   38.748,   2.6736
 5304.00,     0.00,   52.253,   3.6055
 5306.00,     0.00,   96.967,   6.6907
 5308.00,     0.00,  113.427,   7.8265
 5312.00,     0.00,  112.781,   7.7819
 5315.00,     0.00,  105.071,   7.2499
 5317.00,     0.00,   98.573,   6.8015
 5322.00,     0.00,   97.893,   6.7546
 5325.00,     0.00,   91.961,   6.3453
 5327.00,     0.00,    90.16,    6.221
 5330.00,     0.00,   88.348,    6.096
 5333.00,     0.00,    90.08,   6.2155
 5336.00,     0.00,    91.20,   6.2928
 5338.00,     0.00,   84.702,   5.8444
 5341.00,     0.00,   85.245,   5.8819
 5344.00,     0.00,   85.788,   5.9194
 5347.00,     0.00,    85.73,   5.9154
 5350.00,     0.00,    83.33,   5.7498
 5352.00,     0.00,   84.484,   5.8294
 5355.00,     0.00,   86.793,   5.9887
 5358.00,     0.00,   87.336,   6.0262
 5360.00,     0.00,   89.068,   6.1457
 5362.00,     0.00,   90.211,   6.2246
 5365.00,     0.00,   87.822,   6.0597
 5367.00,     0.00,   93.674,   6.4635
 5368.00,     0.00,   96.006,   6.6244
 5369.00,     0.00,   99.526,   6.8673
 5372.00,     0.00,  103.024,   7.1087
 5375.00,     0.00,  108.276,    7.471
 5376.00,     0.00,  112.973,   7.7951
 5377.00,     0.00,   62.892,   4.3395
 5379.00,     0.00,  115.282,   7.9545
 5380.00,     0.00,  121.146,   8.3591
 5383.00,     0.00,  111.093,   7.6654
 5384.00,     0.00,   74.574,   5.1456
 5385.00,     0.00,  54.8255,  16.0599
 5387.00,     0.00,   36.243,   2.5008
 5389.00,     0.00,   40.629,   5.6416
 5390.00,     0.00,   46.793,   3.2287
 5393.00,     0.00,    50.29,     3.47
 5394.00,     0.00,   56.754,    3.916
 5397.00,     0.00,   61.417,   4.2378
 5399.00,     0.00,   66.092,   4.5603
 5402.00,     0.00,   68.401,   4.7197
 5405.00,     0.00,   71.298,   4.9196
 5406.00,     0.00,   68.932,   4.7563
 5408.00,     0.00,   74.196,   5.1195
 5410.00,     0.00,   71.807,   4.9547
 5413.00,     0.00,    72.35,   4.9922
 5417.00,     0.00,  75.2355,   9.5961
 5419.00,     0.00,   72.847,   5.0264
 5421.00,     0.00,    69.28,   4.7803
 5425.00,     0.00,   68.635,   4.7358
 5429.00,     0.00,   68.566,   4.7311
 5435.00,     0.00,   69.663,   4.8067
 5442.00,     0.00,   67.783,    4.677
 5449.00,     0.00,   64.725,    4.466
 5455.00,     0.00,   67.576,   4.6627
 5460.00,     0.00,   65.153,   4.4956
 5464.00,     0.00,    62.73,   4.3284
 5469.00,     0.00,    63.25,   4.3643
 5472.00,     0.00,   63.192,   4.3602
 5476.00,     0.00,   62.547,   4.3157
 5481.00,     0.00,   63.067,   4.3516
 5484.00,     0.00,   61.832,   4.2664
 5488.00,     0.00,   60.009,   4.1406
 5491.00,     0.00,   57.608,    3.975
 5494.00,     0.00,   54.619,   3.7687
 5495.00,     0.00,   51.065,   3.5235
 5497.00,     0.00,  49.5585,   8.1386
 5499.00,     0.00,  66.0235,   8.6515
 5501.00,     0.00,   73.942,    5.102
 5502.00,     0.00,   75.685,   5.2223
 5504.00,     0.00,   72.719,   5.0176
 5507.00,     0.00,   70.907,   4.8926
 5508.00,     0.00,   69.118,   4.7691
 5513.00,     0.00,   68.461,   4.7238
 5515.00,     0.00,    66.66,   4.5995
 5517.00,     0.00,   66.037,   4.5566
 5521.00,     0.00,   65.969,   4.5519
 5524.00,     0.00,    63.58,    4.387
 5528.00,     0.00,   62.922,   4.3416
 5531.00,     0.00,   61.699,   4.2572
 5535.00,     0.00,   59.865,   4.1307
 5538.00,     0.00,   57.476,   3.9658
 5541.00,     0.00,   55.652,     3.84
 5543.00,     0.00,   53.263,   3.6751
 5546.00,     0.00,   50.874,   3.5103
 5549.00,     0.00,   49.063,   3.3853
 5551.00,     0.00,   45.496,   3.1392
 5552.00,     0.00,   41.942,    2.894
 5554.00,     0.00,   32.489,   2.2417
 5557.00,     0.00,   24.791,   1.7106
 5559.00,     0.00,   30.643,  13.4415
 5563.00,     0.00,  67.6875,  17.8913
 5564.00,     0.00,   96.526,   6.6603
 5566.00,     0.00,   97.669,   6.7392
 5568.00,     0.00,   91.159,     6.29
 5569.00,     0.00,   87.016,   6.0041
 5572.00,     0.00,   84.627,   5.8393
 5573.00,     0.00,   80.483,   5.5533
 5575.00,     0.00,   65.144,   4.4949
 5577.00,     0.00,   79.837,   5.5088
 5578.00,     0.00,    77.46,   5.3447
 5582.00,     0.00,   76.814,   5.3002
 5586.00,     0.00,   76.168,   5.2556
 5589.00,     0.00,   76.111,   5.2517
 5593.00,     0.00,   75.465,   5.2071
 5597.00,     0.00,   68.921,   4.7556
 5600.00,     0.00,   75.362,     5.20
 5603.00,     0.00,   75.893,   5.2366
 5609.00,     0.00,   76.979,   5.3116
 5615.00,     0.00,   76.299,   5.2646
 5620.00,     0.00,   76.807,   5.2997
 5625.00,     0.00,   75.561,   5.2137
 5631.00,     0.00,   74.292,   5.1261
 5635.00,     0.00,   74.812,    5.162
 5639.00,     0.00,   74.755,   5.1581
 5640.00,     0.00,   66.502,   4.5886
 5645.00,     0.00,   64.068,   4.4207
 5651.00,     0.00,   64.553,   4.4542
 5654.00,     0.00,   66.285,   4.5737
 5656.00,     0.00,   63.896,   4.4088
 5659.00,     0.00,   61.496,   4.2432
 5662.00,     0.00,   61.438,   4.2392
 5666.00,     0.00,   60.792,   4.1946
 5668.00,     0.00,   56.637,    3.908
 5671.00,     0.00,   54.237,   3.7424
 5675.00,     0.00,    54.18,   3.7384
 5676.00,     0.00,   58.289,   4.0219
 5678.00,     0.00,   39.406,    2.719
 5681.00,     0.00,    22.29,    1.538
 5684.00,     0.00,   22.821,   1.5747
 5686.00,     0.00,   33.994,   2.3456
 5688.00,     0.00,   45.733,   3.1556
 5690.00,     0.00,   51.585,   3.5594
 5692.00,     0.00,    56.86,   3.9233
 5697.00,     0.00,   60.311,   4.1615
 5700.00,     0.00,   57.911,   3.9959
 5705.00,     0.00,   56.065,   3.8685
 5708.00,     0.00,   50.721,   3.4998
 5711.00,     0.00,   48.321,   3.3342
 5714.00,     0.00,    60.06,   4.1441
 5715.00,     0.00,   66.512,   4.5893
 5717.00,     0.00,   71.198,   4.9127
 5720.00,     0.00,   73.507,    5.072
 5725.00,     0.00,   73.427,   5.0665
 5730.00,     0.00,   74.524,   5.1422
 5735.00,     0.00,   72.101,    4.975
 5739.00,     0.00,   73.209,   5.0514
 5743.00,     0.00,   74.329,   5.1287
 5747.00,     0.00,   76.038,   5.2466
 5750.00,     0.00,  82.7615,   8.5418
 5751.00,     0.00,  103.647,   7.1516
 5755.00,     0.00,   84.742,   5.8472
 5758.00,     0.00,   67.625,   4.6661
 5764.00,     0.00,   66.356,   4.5786
 5767.00,     0.00,   67.476,   4.6558
 5770.00,     0.00,   69.796,   4.8159
 5772.00,     0.00,   66.819,   4.6105
 5774.00,     0.00,   69.728,   4.8112
 5778.00,     0.00,   65.538,   4.5221
 5781.00,     0.00,   64.904,   4.4784
 5784.00,     0.00,   65.447,   4.5158
 5788.00,     0.00,   68.921,   4.7556
 5789.00,     0.00,   51.828,   3.5761
 5793.00,     0.00,   47.061,   3.2472
 5796.00,     0.00,   46.427,   3.2035
 5799.00,     0.00,    46.97,   3.2409
 5801.00,     0.00,   39.271,   2.7097
 5804.00,     0.00,    32.75,   2.2598
 5807.00,     0.00,   24.464,    1.688
 5810.00,     0.00,    19.12,   1.3193
 5812.00,     0.00,   42.643,   2.9424
 5814.00,     0.00,   74.996,   5.1747
 5817.00,     0.00,   99.096,  16.9055
 5820.00,     0.00,  110.823,   7.6468
 5823.00,     0.00,  106.068,   7.3187
 5824.00,     0.00,   93.107,   6.4244
 5827.00,     0.00,   90.106,   6.2173
 5831.00,     0.00,   87.106,   6.0103
 5832.00,     0.00,   74.721,   5.1558
 5834.00,     0.00,   82.351,   5.6822
 5836.00,     0.00,    76.43,   5.2737
 5837.00,     0.00,   72.286,   4.9877
 5840.00,     0.00,   71.063,   4.9033
 5843.00,     0.00,   72.195,   4.9815
 5847.00,     0.00,   73.315,   5.0587
 5851.00,     0.00,   70.903,   4.8923
 5854.00,     0.00,   70.846,   4.8884
 5858.00,     0.00,   71.966,   4.9657
 5862.00,     0.00,    71.32,   4.9211
 5866.00,     0.00,   71.251,   4.9163
 5868.00,     0.00,   71.217,    4.914
 5871.00,     0.00,   72.948,   5.0334
 5876.00,     0.00,   69.913,    4.824
 5879.00,     0.00,   71.045,   4.9021
 5884.00,     0.00,   70.387,   4.8567
 5888.00,     0.00,   70.919,   4.8934
 5891.00,     0.00,    71.45,   4.9301
 5895.00,     0.00,   70.804,   4.8855
 5899.00,     0.00,   70.747,   4.8815
 5902.00,     0.00,    70.69,   4.8776
 5906.00,     0.00,    72.41,   4.9963
 5912.00,     0.00,   69.364,   4.7861
 5917.00,     0.00,   68.118,   4.7001
 5921.00,     0.00,   66.283,   4.5735
 5923.00,     0.00,   69.192,   4.7742
 5928.00,     0.00,   65.003,   4.4852
 5930.00,     0.00,   67.912,   4.6859
 5932.00,     0.00,   64.345,   4.4398
 5936.00,     0.00,   63.099,   4.3538
 5940.00,     0.00,   58.922,   4.0656
 5942.00,     0.00,   54.767,   3.7789
 5945.00,     0.00,   48.246,    3.329
 5948.00,     0.00,   38.781,   2.6759
 5951.00,     0.00,   38.736,   2.6728
 5953.00,     0.00,   41.056,   2.8329
EndData:

