Comment:    Automatically converted from EXFOR on 2020-04-07,19:08:32
            by the IAEA-NDS EXFOR Web-Retrieval System
            program ver-2019-12-10 (V.Zerkin).
            X4Title: "Elastic scattering of alpha particles by 9Be and highly
                      excited states of 13C"
            X4Author: J.D.Goss, S.L.Blatt, D.R.Parsignault, C.D.Porterfield, 
            F.L.Riffle
            EXFOR: F0328002    Created: 1986-07-02  Updated: 2016-09-02
            X4Reaction:4-BE-9(A,EL)4-BE-9,,DA; X4Points:704
            Converted from C.M. to Lab.: Sigma, Theta
            SigmaLab=SigmaCM/2.4817111
            ThetaLab=139.1 ThetaCM:156.0
            ENSDF:LevelEnergy=0.00
            Theta groupping interval=3.0 deg.
            Systematic uncertainty: ErrSys=5.0%
            AME2016: M1=4.002603254 M2=9.012183066 M3=4.002603254 M4=9.012183066

Version:      R33
X4Number:     F0328002 20160902
Source:       J.D.Goss+(1973), Jour. Physical Review, Part C, Nuclear Physics, Vol.7, p.1837
Reaction:     9Be(a,a0)9Be
Distribution: Energy
Sigfactors:   1.00, 0.05
Enfactors:    1.00, 0.00, 0.00, 0.00
Units:        mb
Composition:
Masses:       4.0, 9.0, 4.0, 9.0
Zeds:         2, 4, 2, 4
Qvalue:       0.0, 0.00, 0.00, 0.00, 0.00
Theta:        139.1
Data:
  1704.00,      5.00,   16.1179,      0.00
  1758.00,      5.00,   12.4511,      0.00
  1799.00,      5.00,    8.4619,      0.00
  1853.00,      5.00,    3.9086,      0.00
  1900.00,      5.00,    5.0368,      0.00
  1949.00,      5.00,    8.9857,      0.00
  1996.00,      5.00,   12.0884,      0.00
  2051.00,      5.00,   14.9494,      0.00
  2106.00,      5.00,   15.1911,      0.00
  2146.00,      5.00,   13.4988,      0.00
  2201.00,      5.00,   14.0629,      0.00
  2248.00,      5.00,   12.3302,      0.00
  2296.00,      5.00,    11.484,      0.00
  2350.00,      5.00,   10.9199,      0.00
  2398.00,      5.00,   10.5975,      0.00
  2452.00,      5.00,   10.5975,      0.00
  2500.00,      5.00,    9.7513,      0.00
  2554.00,      5.00,    7.1725,      0.00
  2601.00,      5.00,    6.3263,      0.00
  2656.00,      5.00,    6.3263,      0.00
  2703.00,      5.00,    6.0039,      0.00
  2751.00,      5.00,    5.7219,      0.00
  2799.00,      5.00,    5.7219,      0.00
  2853.00,      5.00,    5.7219,      0.00
  2908.00,      5.00,    6.2457,      0.00
  2948.00,      5.00,    6.8098,      0.00
  3010.00,      5.00,    7.0919,      0.00
  3051.00,      5.00,    8.7843,      0.00
  3105.00,      5.00,    7.9381,      0.00
  3153.00,      5.00,    8.2201,      0.00
  3207.00,      5.00,    7.8978,      0.00
  3255.00,      5.00,    8.4619,      0.00
  3302.00,      5.00,    7.0516,      0.00
  3357.00,      5.00,    7.2934,      0.00
  3411.00,      5.00,    7.2934,      0.00
  3459.00,      5.00,    7.0113,      0.00
  3506.00,      5.00,    7.0113,      0.00
  3554.00,      5.00,    8.1395,      0.00
  3602.00,      5.00,    8.7037,      0.00
  3650.00,      5.00,    9.5096,      0.00
  3704.00,      5.00,   10.3558,      0.00
  3752.00,      5.00,    11.484,      0.00
  3806.00,      5.00,   12.0481,      0.00
  3854.00,      5.00,   12.0481,      0.00
  3902.00,      5.00,   12.8943,      0.00
  3956.00,      5.00,   11.7258,      0.00
  4011.00,      5.00,   15.4329,      0.00
  4058.00,      5.00,   13.9823,      0.00
  4106.00,      5.00,   14.2644,      0.00
  4167.00,      5.00,   13.9823,      0.00
  4208.00,      5.00,   13.6599,      0.00
  4255.00,      5.00,    13.942,      0.00
  4310.00,      5.00,   14.5061,      0.00
  4358.00,      5.00,   15.0702,      0.00
  4412.00,      5.00,   14.7882,      0.00
  4460.00,      5.00,   15.3523,      0.00
  4514.00,      5.00,   15.8761,      0.00
  4555.00,      5.00,    15.312,      0.00
  4610.00,      5.00,    15.312,      0.00
  4657.00,      5.00,   16.1582,      0.00
  4712.00,      5.00,   16.7223,      0.00
  4759.00,      5.00,   17.5282,      0.00
  4814.00,      5.00,   18.3744,      0.00
  4855.00,      5.00,   19.7847,      0.00
  4916.00,      5.00,   21.1951,      0.00
  4964.00,      5.00,   24.0157,      0.00
  5020.00,      5.00,   34.8147,      0.00
  5077.00,      5.00,   55.8083,      0.00
  5116.00,      5.00,   44.4451,      0.00
  5162.00,      5.00,   29.3749,      0.00
  5209.00,      5.00,   21.7189,      0.00
  5263.00,      5.00,   16.3194,      0.00
  5317.00,      5.00,   13.4585,      0.00
  5364.00,      5.00,   12.6123,      0.00
  5419.00,      5.00,   12.3302,      0.00
  5473.00,      5.00,   12.2899,      0.00
  5514.00,      5.00,   13.9823,      0.00
  5569.00,      5.00,   17.1253,      0.00
  5617.00,      5.00,   19.9459,      0.00
  5672.00,      5.00,   23.6127,      0.00
  5720.00,      5.00,   27.2796,      0.00
  5768.00,      5.00,   29.5764,      0.00
  5823.00,      5.00,   34.0894,      0.00
  5884.00,      5.00,   35.7818,      0.00
  5925.00,      5.00,   37.4741,      0.00
  5973.00,      5.00,   38.0383,      0.00
  6027.00,      5.00,   37.4741,      0.00
  6075.00,      5.00,   35.7415,      0.00
  6122.00,      5.00,   34.6132,      0.00
  6177.00,      5.00,   34.2909,      0.00
  6224.00,      5.00,   31.4702,      0.00
  6271.00,      5.00,   30.5837,      0.00
EndData:
