Comment:    Automatically converted from EXFOR on 2020-04-07,19:17:13
            by the IAEA-NDS EXFOR Web-Retrieval System
            program ver-2019-12-10 (V.Zerkin).
            X4Title: "Elastic scattering of 4-20 MeV alpha partcles by 9Be"
            X4Author: R.B.Taylor, N.R.Fletcher, R.H.Davis
            EXFOR: F0200002    Created: 1982-08-18  Updated: 2005-09-26
            X4Reaction:4-BE-9(A,EL)4-BE-9,,DA,,,EXP; X4Points:954
            Converted from C.M. to Lab.: Sigma, Theta
            SigmaLab=SigmaCM/1.8069426
            ThetaLab=117.6 ThetaCM:140.8
            ENSDF:LevelEnergy=0.00
            Systematic uncertainty: ErrSys=7.51%  Min=5.1%  Max=20.88%
            AME2016: M1=4.002603254 M2=9.012183066 M3=4.002603254 M4=9.012183066

Version:      R33
X4Number:     F0200002 20050926
Source:       R.B.Taylor+(1965), Jour. Nuclear Physics, Vol.65, p.318
Reaction:     9Be(a,a0)9Be
Distribution: Energy
Sigfactors:   1.00, 0.0751
Enfactors:    1.00, 0.00, 0.00, 0.00
Units:        mb
Composition:
Masses:       4.0, 9.0, 4.0, 9.0
Zeds:         2, 4, 2, 4
Qvalue:       0.0, 0.00, 0.00, 0.00, 0.00
Theta:        117.6
Data:
  7001.00,    100.00,   18.5341,    1.5067
  7153.00,    100.00,   19.7239,     1.616
  7256.00,    100.00,   19.7295,    1.6165
  7357.00,    100.00,   20.6205,    1.6979
  7457.00,    100.00,   21.8103,    1.8059
  7613.00,    100.00,   20.9304,    1.7261
  7669.00,    100.00,   18.2795,    1.4831
  7774.00,    100.00,   17.1062,    1.3742
  7878.00,    100.00,   16.2263,    1.2917
  7982.00,    100.00,   15.6397,    1.2362
  8084.00,    100.00,   16.2374,    1.2927
  8186.00,    100.00,   16.5418,    1.3213
  8238.00,    100.00,   15.9551,    1.2661
  8391.00,    100.00,   16.8461,    1.3499
  8493.00,    100.00,   17.1505,    1.3783
  8595.00,    100.00,   17.4494,    1.4062
  8648.00,    100.00,   16.8683,    1.3519
  8851.00,    100.00,   18.0581,    1.4627
  8905.00,    100.00,    16.586,    1.3255
  9007.00,    100.00,   16.5916,     1.326
  9116.00,    100.00,    13.354,    1.0155
  9222.00,    100.00,   11.5886,    0.8372
  9278.00,    100.00,    9.5244,    0.6116
  9383.00,    100.00,    8.3511,    0.4656
  9537.00,    100.00,    8.0633,    0.4259
  9634.00,    100.00,   11.3175,    0.8089
  9734.00,    100.00,   12.5073,    0.9311
  9783.00,    100.00,   13.6916,    1.0486
  9882.00,    100.00,   15.4681,    1.2199
  9982.00,    100.00,   16.9513,    1.3597
 10080.00,    100.00,   18.7278,    1.5245
 10230.00,    100.00,   19.6243,    1.6069
 10330.00,    100.00,   22.5796,    1.8755
 10480.00,    100.00,   23.1773,    1.9294
 10530.00,    100.00,   24.3616,    2.0359
 10640.00,    100.00,   24.3671,    2.0364
 10740.00,    100.00,   22.9006,    1.9045
 10790.00,    100.00,   22.9061,     1.905
 10900.00,    100.00,   23.2049,    1.9319
 11000.00,    100.00,    24.096,     2.012
 11200.00,    100.00,   25.5847,    2.1455
 11250.00,    100.00,   27.3611,     2.304
 11400.00,    100.00,   27.6655,    2.3311
 11450.00,    100.00,   28.5565,    2.4104
 11500.00,    100.00,   26.7856,    2.2527
 11710.00,    100.00,   25.9112,    2.1747
 11820.00,    100.00,   25.0368,    2.0964
 11870.00,    100.00,    23.858,    1.9907
 11970.00,    100.00,   23.5702,    1.9648
 12130.00,    100.00,   19.7405,    1.6175
 12140.00,    100.00,   17.6763,    1.4273
 12300.00,    100.00,   15.9164,    1.2624
 12350.00,    100.00,   15.0309,    1.1782
 12460.00,    100.00,   12.0867,    0.8885
 12560.00,    100.00,    8.8492,    0.5301
 12670.00,    100.00,    7.6704,    0.3674
 12770.00,    100.00,    7.0893,    0.2659
 12830.00,    100.00,    5.6172,      0.00
 12930.00,    100.00,    5.9161,      0.00
 13090.00,    100.00,     4.452,    0.2953
 13290.00,    100.00,     4.465,      0.00
 13340.00,    100.00,    4.1733,      0.00
 13450.00,    100.00,    3.8845,      0.00
 13650.00,    100.00,    4.7827,      0.00
 13750.00,    100.00,    5.3793,      0.00
 13850.00,    100.00,    5.6836,      0.00
 13910.00,    100.00,    5.3892,      0.00
 14060.00,    100.00,    6.2813,      0.00
 14220.00,    100.00,    5.1136,      0.00
 14320.00,    100.00,    6.0046,      0.00
 14370.00,    100.00,     5.123,      0.00
 14520.00,    100.00,    6.0212,      0.00
 14570.00,    100.00,    5.4313,      0.00
 14730.00,    100.00,    6.0323,      0.00
 14780.00,    100.00,     5.739,      0.00
 14980.00,    100.00,      5.75,      0.00
 15090.00,    100.00,    6.3477,      0.00
 15190.00,    100.00,    6.6521,      0.16
 15290.00,    100.00,     6.951,    0.2368
 15390.00,    100.00,    6.9565,    0.2381
 15550.00,    100.00,     7.853,    0.3953
 15650.00,    100.00,    8.7441,    0.5169
 15800.00,    100.00,   10.5261,    0.7244
 15900.00,    100.00,   11.7159,    0.8504
 16000.00,    100.00,   10.5371,    0.7256
 16160.00,    100.00,   11.4337,    0.8211
 16260.00,    100.00,   11.1459,    0.7908
 16410.00,    100.00,   10.2715,    0.6964
 16670.00,    100.00,   10.2881,    0.6982
 16830.00,    100.00,   10.0003,    0.6662
 16980.00,    100.00,   10.0114,    0.6674
 17130.00,    100.00,    9.4303,    0.6006
 17190.00,    100.00,     9.137,    0.5656
 17290.00,    100.00,    8.5559,    0.4927
 17390.00,    100.00,    8.5614,    0.4934
 17550.00,    100.00,    8.5725,    0.4948
 17700.00,    100.00,    8.8769,    0.5336
 17800.00,    100.00,    9.7679,    0.6398
 17850.00,    100.00,   10.6534,    0.7382
 18000.00,    100.00,   10.3711,    0.7074
 18100.00,    100.00,   11.8543,    0.8647
 18260.00,    100.00,    12.452,    0.9255
 18310.00,    100.00,   12.7508,    0.9556
 18410.00,    100.00,   14.5273,    1.1299
 18560.00,    100.00,    15.125,    1.1872
 18660.00,    100.00,   16.0215,    1.2724
 18760.00,    100.00,   16.9125,    2.0035
 18970.00,    100.00,   17.2169,    1.3845
 19170.00,    100.00,    18.119,    1.4683
 19230.00,    100.00,   16.6469,    1.3312
 19380.00,    100.00,   17.5379,    1.4144
 19430.00,    100.00,   16.3647,    1.3047
 19590.00,    100.00,   15.7836,    1.2498
 19740.00,    100.00,   15.7946,    1.2509
 19790.00,    100.00,   14.9092,    1.1666
 19950.00,    100.00,   14.0348,    1.0821
 20060.00,    100.00,   12.5627,    0.9367
 20110.00,    100.00,   11.3894,    0.8164
 20260.00,    100.00,   10.8083,    0.7549
EndData:
