
Comment:    Automatically converted from EXFOR on 2020-04-07,19:17:13
            by the IAEA-NDS EXFOR Web-Retrieval System
            program ver-2019-12-10 (V.Zerkin).
            X4Title: "Elastic scattering of 4-20 MeV alpha partcles by 9Be"
            X4Author: R.B.Taylor, N.R.Fletcher, R.H.Davis
            EXFOR: F0200002    Created: 1982-08-18  Updated: 2005-09-26
            X4Reaction:4-BE-9(A,EL)4-BE-9,,DA,,,EXP; X4Points:954
            Converted from C.M. to Lab.: Sigma, Theta
            SigmaLab=SigmaCM/2.386319
            ThetaLab=136 ThetaCM:154.0
            ENSDF:LevelEnergy=0.00
            Systematic uncertainty: ErrSys=7.51%  Min=5.1%  Max=20.88%
            AME2016: M1=4.002603254 M2=9.012183066 M3=4.002603254 M4=9.012183066

Version:      R33
X4Number:     F0200002 20050926
Source:       R.B.Taylor+(1965), Jour. Nuclear Physics, Vol.65, p.318
Reaction:     9Be(a,a0)9Be
Distribution: Energy
Sigfactors:   1.00, 0.0751
Enfactors:    1.00, 0.00, 0.00, 0.00
Units:        mb
Composition:
Masses:       4.0, 9.0, 4.0, 9.0
Zeds:         2, 4, 2, 4
Qvalue:       0.0, 0.00, 0.00, 0.00, 0.00
Theta:        136
Data:
  6501.00,    100.00,    41.541,    3.5731
  6615.00,    100.00,   37.4845,    3.2191
  6681.00,    100.00,   32.1457,    2.7522
  6742.00,    100.00,   28.2988,    2.4147
  6805.00,    100.00,   24.2424,    2.0572
  6858.00,    100.00,   23.6012,    2.0005
  7014.00,    100.00,   22.7547,    1.9255
  7114.00,    100.00,   23.8275,    2.0205
  7267.00,    100.00,   24.2633,    2.0591
  7324.00,    100.00,   21.9124,    1.8508
  7431.00,    100.00,   20.4248,    1.7185
  7541.00,    100.00,   17.8643,    1.4893
  7642.00,    100.00,    18.296,    1.5281
  7749.00,    100.00,   16.8041,    1.3937
  7808.00,    100.00,     14.03,    1.1405
  7916.00,    100.00,    11.897,    0.9412
  7927.00,    100.00,    7.8363,    0.5338
 8081.001,    100.00,    8.0542,    0.5576
  8182.00,    100.00,    8.6996,    0.6261
 8336.001,    100.00,     8.708,     0.627
  8388.00,    100.00,    8.4984,    0.6051
  8540.00,    100.00,    8.9343,    0.6504
  8695.00,    100.00,    8.7247,    0.6287
  8743.00,    100.00,   10.0112,     0.759
  8844.00,    100.00,   10.6566,    0.8223
  8894.00,    100.00,   11.0882,     0.864
  8996.00,    100.00,   11.3061,    0.8849
  9151.00,    100.00,   10.8829,    0.8442
  9255.00,    100.00,   10.6775,    0.8243
  9408.00,    100.00,   10.8954,    0.8454
  9559.00,    100.00,   12.1861,    0.9686
  9656.00,    100.00,   14.1138,    1.1482
  9754.00,    100.00,   15.8277,    1.3051
  9802.00,    100.00,   17.3279,    1.4409
  9955.00,    100.00,     17.55,     1.461
 10050.00,    100.00,   19.0503,    1.5957
 10210.00,    100.00,   19.2724,    1.6156
 10260.00,    100.00,   19.6998,    1.6538
 10410.00,    100.00,   19.9219,    1.6736
 10560.00,    100.00,   19.7166,    1.6553
 10670.00,    100.00,   18.6522,      1.56
 10770.00,    100.00,   18.0152,    1.5028
 10880.00,    100.00,   16.7371,    1.3876
 10980.00,    100.00,   16.3138,    1.3493
 11040.00,    100.00,   15.8906,    1.3108
 11140.00,    100.00,   16.3222,      1.35
 11300.00,    100.00,   14.9414,    1.8073
 11400.00,    100.00,   12.9153,     1.037
 11560.00,    100.00,   12.2783,    1.4449
 11720.00,    100.00,   12.2867,    0.9781
 11770.00,    100.00,   12.2909,    0.9785
 11820.00,    100.00,   10.7949,    0.8357
 11980.00,    100.00,   10.5895,    0.8158
 12030.00,    100.00,   10.8074,    0.8369
 12130.00,    100.00,    9.9568,    0.7536
 12240.00,    100.00,    9.1061,    0.6681
 12340.00,    100.00,    8.0417,    0.5562
 12400.00,    100.00,    7.4047,    0.4854
 12550.00,    100.00,    7.1952,    0.4611
 12650.00,    100.00,    6.5582,    0.3833
 12810.00,    100.00,    6.1392,    0.3272
 12910.00,    100.00,    5.9296,    0.2968
 12970.00,    100.00,    5.2927,    0.1857
 13070.00,    100.00,    5.7243,    0.2648
 13220.00,    100.00,     5.519,    0.2299
 13380.00,    100.00,    5.5232,    0.2306
 13430.00,    100.00,    5.0999,    0.1395
 13530.00,    100.00,    5.5315,    0.2321
 13630.00,    100.00,    5.7494,    0.2689
 13790.00,    100.00,    5.5441,    0.2343
 13840.00,    100.00,     5.762,    0.2709
 13990.00,    100.00,    5.9799,    0.3043
 14090.00,    100.00,    6.1978,    0.3354
 14250.00,    100.00,    6.6336,     0.393
 14350.00,    100.00,    5.9967,    0.3067
 14450.00,    100.00,    6.4325,     0.367
 14610.00,    100.00,    6.0093,    0.3086
 14710.00,    100.00,    6.2272,    0.3395
 14810.00,    100.00,    5.8039,    0.2775
 14970.00,    100.00,    5.8123,    0.2789
 15070.00,    100.00,    5.8165,    0.2795
 15170.00,    100.00,    6.0344,    0.3123
 15330.00,    100.00,    5.8291,    0.2815
 15380.00,    100.00,    5.4058,    0.2087
 15480.00,    100.00,    5.8374,    0.2827
 15580.00,    100.00,    6.2691,    0.3452
 15690.00,    100.00,    6.2733,    0.3458
 15840.00,    100.00,    6.9228,    0.4288
 15940.00,    100.00,    7.1407,    0.4548
 16090.00,    100.00,    6.9354,    0.4303
 16200.00,    100.00,    6.5121,    0.3774
 16350.00,    100.00,    6.3068,    0.3503
 16460.00,    100.00,    5.8835,    0.2899
 16510.00,    100.00,    6.0973,    0.3213
 16660.00,    100.00,    5.8919,    0.2911
 16770.00,    100.00,    5.4687,    0.2207
 16820.00,    100.00,     4.618,      0.00
 16920.00,    100.00,    4.8359,      0.00
 17020.00,    100.00,    4.8401,     0.009
 17130.00,    100.00,    4.8443,    0.0201
 17180.00,    100.00,    4.6348,      0.00
 17330.00,    100.00,    4.2157,      0.00
 17430.00,    100.00,    4.6473,      0.00
 17540.00,    100.00,    5.2927,    0.1857
 17590.00,    100.00,    5.9338,    0.2974
 17690.00,    100.00,    6.5834,    0.3866
 17890.00,    100.00,    7.2329,    0.4656
 17940.00,    100.00,    7.0192,    0.4404
 18040.00,    100.00,     7.455,    0.4911
 18200.00,    100.00,    8.1003,    0.5626
 18350.00,    100.00,    8.7499,    0.6313
 18450.00,    100.00,    8.9678,    0.6539
 18600.00,    100.00,    8.7625,    0.6327
 18760.00,    100.00,    8.7708,    0.6335
 18910.00,    100.00,    8.5613,    0.6116
 19020.00,    100.00,     8.356,      0.59
 19070.00,    100.00,    8.7834,    0.6348
 19270.00,    100.00,    9.0097,    0.6582
 19320.00,    100.00,    9.2234,      0.68
 19380.00,    100.00,    9.0139,    0.6586
 19530.00,    100.00,    9.4455,    0.7025
 19680.00,    100.00,    9.8813,    0.7461
 19780.00,    100.00,   10.2061,    0.8956
 19940.00,    100.00,   10.3213,    0.7895
EndData:
