Comment:    Automatically converted from EXFOR
            by the IAEA-NDS EXFOR Web-Retrieval System
            program version-2015/03/13, by V.Zerkin.
            "Measurement of differential cross sections in a+9Be
             elastic scattering."
            I.Lombardo,  L.Campajola,  E.Rosato,  G.Spadaccini, 
            M.Vigilante
            EXFOR: O2137003    Created: 2013-07-06  Updated: 2015-06-04
            X4Reaction:4-BE-9(A,EL)4-BE-9,,DA; X4Points:411
            LevelEnergy: 0.00

Version:      R33
X4Number:     O2137003
Source:       I.Lombardo+(2013), Jour. Nucl. Instrum. Methods in Physics Res., Sect.B, Vol.302, p.19
Reaction:     9Be(a,a0)9Be
Distribution: Energy
Sigfactors:   1.00, 0.00
Enfactors:    1.00, 0.00, 0.00, 0.00
Units:        mb
Composition:
Masses:       4.0, 9.0, 4.0, 9.0
Zeds:         2, 4, 2, 4
Qvalue:       0.0, 0.00, 0.00, 0.00, 0.00
Theta:        110
Data:
 4380.00,     0.00,  15.1206,    1.197
 4440.00,     0.00,  15.6246,    1.197
 4500.00,     0.00,  17.3257,   1.3231
 4560.00,     0.00,  19.0898,   1.4491
 4620.00,     0.00,  21.7989,   1.7011
 4690.00,     0.00,  23.3109,   1.8271
 4750.00,     0.00,   26.209,   2.0161
 4810.00,     0.00,  28.0991,   2.1421
 4870.00,     0.00,  31.9423,   2.4571
 4940.00,     0.00,  34.9664,   2.7091
 4990.00,     0.00,  45.2988,   3.5281
 5050.00,     0.00,  39.8806,   3.0871
 5100.00,     0.00,  24.0039,   1.8271
 5170.00,     0.00,  16.8217,   1.3231
 5230.00,     0.00,  14.6166,    1.134
 5290.00,     0.00,  14.9316,    1.134
 5350.00,     0.00,  16.4437,     1.26
 5410.00,     0.00,  17.9557,   1.3861
 5470.00,     0.00,  21.1688,   1.6381
 5530.00,     0.00,   24.823,   1.8901
 5590.00,     0.00,  29.7372,   2.2681
 5650.00,     0.00,  34.7774,   2.7091
 5710.00,     0.00,  38.1165,   2.9611
 5770.00,     0.00,  40.5106,   3.1501
 5840.00,     0.00,  41.5816,   3.2131
 5900.00,     0.00,  37.7385,   2.8981
 5960.00,     0.00,  32.6353,   2.5201
 6020.00,     0.00,  31.5642,   2.4571
 6080.00,     0.00,  26.5871,   2.0791
 6140.00,     0.00,  24.0039,   1.8271
 6200.00,     0.00,  21.9879,   1.7011
 6260.00,     0.00,  21.3578,   1.6381
 6320.00,     0.00,  21.0428,   1.6381
 6380.00,     0.00,  19.6568,   1.5121
 6440.00,     0.00,  19.0268,   1.4491
 6500.00,     0.00,  18.8377,   1.4491
 6560.00,     0.00,  17.8297,   1.3861
 6620.00,     0.00,  18.0187,   1.3861
 6680.00,     0.00,  17.7037,   1.3861
 6740.00,     0.00,  18.0187,   1.3861
 6800.00,     0.00,  17.5147,   1.3231
 6860.00,     0.00,  16.9477,   1.3231
 6920.00,     0.00,  17.7667,   1.3861
 6980.00,     0.00,  17.7037,   1.3861
 7040.00,     0.00,  18.0187,   1.3861
 7100.00,     0.00,  18.5857,   1.4491
 7160.00,     0.00,  19.9718,   1.5121
 7220.00,     0.00,  20.4758,   1.5751
 7280.00,     0.00,  23.7519,   1.8271
 7340.00,     0.00,  24.0039,   1.8271
 7400.00,     0.00,   25.768,   2.0161
 7460.00,     0.00,   24.886,   1.9531
 7520.00,     0.00,   25.768,   2.0161
 7580.00,     0.00,   24.445,   1.8901
 7650.00,     0.00,   26.146,   2.0161
 7710.00,     0.00,   24.886,   1.9531
 7770.00,     0.00,  22.4289,   1.7641
 7830.00,     0.00,  20.6018,   1.5751
 7890.00,     0.00,  19.7198,   1.5121
 7950.00,     0.00,  19.6568,   1.5121
 8010.00,     0.00,  20.5388,   1.5751
 8070.00,     0.00,  21.0428,   1.6381
 8130.00,     0.00,  22.3029,   1.7011
 8190.00,     0.00,  23.0589,   1.7641
 8250.00,     0.00,  23.8779,   1.8271
 8310.00,     0.00,   24.634,   1.8901
 8370.00,     0.00,  23.5629,   1.8271
 8430.00,     0.00,   24.508,   1.8901
 8490.00,     0.00,    25.39,   1.9531
 8550.00,     0.00,   26.146,   2.0161
 8610.00,     0.00,   24.697,   1.8901
 8670.00,     0.00,    25.39,   1.9531
 8730.00,     0.00,   26.083,   2.0161
 8790.00,     0.00,   24.886,   1.9531
 8850.00,     0.00,   25.012,   1.9531
 8910.00,     0.00,   24.823,   1.8901
 8970.00,     0.00,  22.8069,   1.7641
 9030.00,     0.00,  22.1769,   1.7011
 9090.00,     0.00,  20.4758,   1.5751
 9150.00,     0.00,  17.5147,   1.3231
 9210.00,     0.00,  16.4437,     1.26
 9270.00,     0.00,  14.4276,    1.134
 9330.00,     0.00,  12.5375,    0.945
 9390.00,     0.00,  11.4665,    0.882
 9450.00,     0.00,  12.9785,    1.008
 9510.00,     0.00,  15.3096,    1.197
 9570.00,     0.00,  16.1286,     1.26
 9630.00,     0.00,  17.4517,   1.3231
 9690.00,     0.00,  17.2627,   1.3231
 9750.00,     0.00,  17.3257,   1.3231
 9810.00,     0.00,  17.8297,   1.3861
 9870.00,     0.00,  18.9638,   1.4491
 9940.00,     0.00,  19.5938,   1.5121
EndData:

