Comment:    Automatically converted from EXFOR on 2020-04-07,19:17:13
            by the IAEA-NDS EXFOR Web-Retrieval System
            program ver-2019-12-10 (V.Zerkin).
            X4Title: "Elastic scattering of 4-20 MeV alpha partcles by 9Be"
            X4Author: R.B.Taylor, N.R.Fletcher, R.H.Davis
            EXFOR: F0200002    Created: 1982-08-18  Updated: 2005-09-26
            X4Reaction:4-BE-9(A,EL)4-BE-9,,DA,,,EXP; X4Points:954
            Converted from C.M. to Lab.: Sigma, Theta
            SigmaLab=SigmaCM/1.3140782
            ThetaLab=99.3 ThetaCM:125.3
            ENSDF:LevelEnergy=0.00
            Systematic uncertainty: ErrSys=7.51%  Min=5.1%  Max=20.88%
            AME2016: M1=4.002603254 M2=9.012183066 M3=4.002603254 M4=9.012183066

Version:      R33
X4Number:     F0200002 20050926
Source:       R.B.Taylor+(1965), Jour. Nuclear Physics, Vol.65, p.318
Reaction:     9Be(a,a0)9Be
Distribution: Energy
Sigfactors:   1.00, 0.0751
Enfactors:    1.00, 0.00, 0.00, 0.00
Units:        mb
Composition:
Masses:       4.0, 9.0, 4.0, 9.0
Zeds:         2, 4, 2, 4
Qvalue:       0.0, 0.00, 0.00, 0.00, 0.00
Theta:        99.3
Data:
  4138.00,    100.00,    42.448,    3.5965
  4244.00,    100.00,   40.1042,    3.3887
  4303.00,    100.00,   34.6174,    2.8998
  4409.00,    100.00,   32.2736,    2.6894
  4610.00,    100.00,    35.036,    2.9372
  4658.00,    100.00,   37.7831,    3.1824
  4759.00,    100.00,   38.5746,    3.2528
  4858.00,    100.00,   41.3294,    3.4974
  4904.00,    100.00,   44.8603,    3.8098
  4949.00,    100.00,   49.5709,     4.225
  4993.00,    100.00,   54.6771,    4.6736
  5099.00,    100.00,   56.6481,    4.8465
  5144.00,    100.00,   52.7214,    4.5019
  5211.00,    100.00,   45.6746,    3.8817
  5221.00,    100.00,   38.6126,    3.2562
  5227.00,    100.00,   34.6935,    2.9066
  5284.00,    100.00,   30.3863,    2.5191
  5341.00,    100.00,   26.4672,    2.1621
  5493.00,    100.00,   28.0501,    2.3069
  5638.00,    100.00,   30.8049,    2.5569
  5643.00,    100.00,   34.3359,    2.8745
  5685.00,    100.00,   37.8668,    3.1899
  5784.00,    100.00,   39.8378,    3.3651
  5944.00,    100.00,   35.9263,    3.0168
  5947.00,    100.00,   33.5749,    2.8063
  6041.00,    100.00,   39.8606,    3.3671
  6053.00,    100.00,   31.6267,    2.6311
  6212.00,    100.00,   27.7152,    2.2764
  6270.00,    100.00,   23.0123,    1.8419
  6375.00,    100.00,   21.4523,    1.6948
  6481.00,    100.00,   19.1085,    1.4695
  6637.00,    100.00,   17.9441,    1.3549
  6691.00,    100.00,   16.3841,    1.1976
  6743.00,    100.00,   15.6003,    1.1163
  6899.00,    100.00,   14.0479,    0.9492
  7001.00,    100.00,   14.8393,    1.0356
  7103.00,    100.00,    15.235,    1.0778
  7199.00,    100.00,   19.9531,    1.5514
  7298.00,    100.00,   22.7079,    1.8134
  7448.00,    100.00,   25.4627,    2.0697
  7498.00,    100.00,   26.6422,    2.1782
  7650.00,    100.00,    27.837,    2.2875
  7702.00,    100.00,   27.0532,    2.2158
  7809.00,    100.00,   24.3136,    1.9633
  7863.00,    100.00,   22.3579,    1.7804
  8014.00,    100.00,   23.1569,    1.8555
  8016.00,    100.00,   24.7246,    2.0014
  8167.00,    100.00,   25.1279,    2.0388
  8266.00,    100.00,   27.8827,    2.2916
  8367.00,    100.00,   29.0698,    2.3998
  8568.00,    100.00,   31.8322,    2.6496
  8673.00,    100.00,   30.2722,    2.5088
  8773.00,    100.00,   32.2431,    2.6866
  8874.00,    100.00,   33.4227,    2.7926
  8927.00,    100.00,   32.2507,    2.6873
  8931.00,    100.00,   29.8993,     2.475
  9088.00,    100.00,    27.563,    2.2625
  9146.00,    100.00,   23.2482,     1.864
  9253.00,    100.00,   19.7325,    1.5301
  9408.00,    100.00,   18.9563,    1.4546
  9510.00,    100.00,   19.7477,    1.5316
  9614.00,    100.00,   18.9715,    1.4561
  9720.00,    100.00,   16.6276,    1.2225
  9822.00,    100.00,   17.0309,    1.2634
  9873.00,    100.00,   17.4267,    1.3033
  9972.00,    100.00,   19.3976,    1.4976
 10070.00,    100.00,   20.1891,    1.5741
 10180.00,    100.00,   21.7643,    1.7244
 10280.00,    100.00,   22.5633,    1.7998
 10380.00,    100.00,   23.7429,    1.9102
 10530.00,    100.00,   24.1538,    1.9484
 10630.00,    100.00,   23.3776,    1.8761
 10740.00,    100.00,   22.2057,    1.7661
 10840.00,    100.00,   23.3928,    1.8775
 10990.00,    100.00,   23.7961,    1.9152
 11100.00,    100.00,   23.4157,    1.8797
 11200.00,    100.00,   24.5952,    1.9894
 11300.00,    100.00,   24.6028,    1.9901
 11400.00,    100.00,    24.618,    1.9915
 11510.00,    100.00,   23.4461,    1.8825
 11610.00,    100.00,   21.8861,    1.7359
 11770.00,    100.00,   23.0732,    1.8476
 11810.00,    100.00,   23.4689,    1.8846
 11920.00,    100.00,    24.268,    1.9591
 12070.00,    100.00,   25.0594,    2.0324
 12220.00,    100.00,   25.0746,    2.0338
 12280.00,    100.00,   24.2908,    1.9612
 12430.00,    100.00,   23.9179,    1.9265
 12480.00,    100.00,   23.1341,    1.8533
 12590.00,    100.00,   21.5741,    1.7064
 12690.00,    100.00,    20.014,    1.5573
 12800.00,    100.00,   20.0216,     1.558
 12900.00,    100.00,   19.6411,    1.5213
 13000.00,    100.00,   18.4692,    1.4069
 13110.00,    100.00,   17.3049,    1.2911
 13260.00,    100.00,   16.1406,    1.1725
 13270.00,    100.00,   14.1772,    0.9635
 13420.00,    100.00,   13.4086,    0.8771
 13580.00,    100.00,   13.0281,     0.833
 13630.00,    100.00,     12.64,    0.7869
 13780.00,    100.00,   13.0434,    0.8348
 13880.00,    100.00,    13.051,    0.8357
 13990.00,    100.00,   12.6705,    0.7905
 14090.00,    100.00,     12.29,    0.7441
 14190.00,    100.00,   13.0814,    0.8392
 14350.00,    100.00,   13.4847,    0.8859
 14400.00,    100.00,   13.0966,     0.841
 14600.00,    100.00,   13.8957,    0.9322
 14700.00,    100.00,    14.299,    0.9769
 14810.00,    100.00,   13.9109,    0.9339
 15010.00,    100.00,   14.3218,    0.9794
 15170.00,    100.00,   13.9413,    0.9374
 15220.00,    100.00,   13.5532,    0.8936
 15270.00,    100.00,   14.3447,    0.9819
 15470.00,    100.00,   15.5394,    1.1099
 15630.00,    100.00,    15.547,    1.1107
 15780.00,    100.00,   14.7784,     1.029
 15830.00,    100.00,   14.3903,    0.9869
 15990.00,    100.00,    13.226,    0.8561
 16090.00,    100.00,   12.0617,    0.7155
 16200.00,    100.00,   10.8898,     0.557
 16350.00,    100.00,   10.1212,     0.435
 16510.00,    100.00,     9.345,    0.2753
 16720.00,    100.00,    8.1882,      0.00
 16820.00,    100.00,    7.0217,      0.00
 16980.00,    100.00,      6.25,      0.00
 17180.00,    100.00,    5.0903,      0.00
 17390.00,    100.00,    4.7151,      0.00
 17650.00,    100.00,    4.3445,      0.00
 17900.00,    100.00,    5.1496,      0.00
 18210.00,    100.00,    5.9593,      0.00
 18310.00,    100.00,    5.9677,      0.00
 18620.00,    100.00,    6.7774,      0.00
 18770.00,    100.00,    6.3984,      0.00
 18980.00,    100.00,    6.8078,      0.00
 19230.00,    100.00,    6.4365,      0.00
 19490.00,    100.00,    6.8497,      0.00
 19750.00,    100.00,     6.871,      0.00
 19900.00,    100.00,    6.8839,      0.00
 20000.00,    100.00,    6.1077,      0.00
 20110.00,    100.00,    6.1168,      0.00
EndData:
