Comment: Data were digitized. Energy digitizing error is 0.0005 MeV,
         data digitizing error is 0.0001 mb/sr.

Version: R33
Source: W.A. Schier et al. Nuclear Physics A v.254 (1975) 80
Name: Taova Sophiya 
Address1: All-Russia Scientific Research Institute of Experimental Physics
Address2: 607190, Mira, 37, Sarov, Nizhni Novgorod reg., Russia
Address3: tel: (831-30) 2-77-79   fax:( 831-30) 4-55-69
Address4: e-mail: taova@expd.vniief.ru
Serial Number: 
SubFile: 
X4Number: F1014003
Reaction: 31P(a,p0)34S
Distribution: Energy
Composition: 
Masses:    4.000,   31.000,    1.000,   34.000
Zeds: 2, 15, 1, 16
Qvalue:        627.4,      0.00,      0.00,      0.00,      0.00
Theta:  155.0
Sigfactors: 1.00, 0.00 
Enfactors: 1000.00, 0.00, 0.00, 0.00
Units: mb
Data:
     3.2553         0. 3.0076E-03         0.
     3.2606         0. 1.5039E-03         0.
     3.2637         0. 3.0075E-02         0.
     3.2658         0. 6.7669E-02         0.
     3.2701         0. 9.3233E-02         0.
     3.2764         0. 6.3158E-02         0.
     3.2806         0. 3.4587E-02         0.
      3.287         0. 4.3609E-02         0.
     3.2891         0.     0.1293         0.
     3.2933         0. 1.5038E-02         0.
     3.2954         0.     0.1759         0.
     3.3007         0.     0.1579         0.
     3.3028         0. 9.6241E-02         0.
     3.3102         0. 5.1128E-02         0.
     3.3155         0. 6.6166E-02         0.
     3.3197         0. 7.2181E-02         0.
      3.325         0. 4.8121E-02         0.
     3.3313         0. 4.9625E-02         0.
     3.3345         0.     0.1218         0.
     3.3387         0.     0.1534         0.
     3.3461         0. 9.3234E-02         0.
     3.3514         0. 7.0678E-02         0.
     3.3556         0. 4.2106E-02         0.
     3.3609         0. 4.5114E-02         0.
     3.3661         0. 5.4136E-02         0.
     3.3714         0. 7.5189E-02         0.
     3.3778         0. 7.6693E-02         0.
      3.382         0. 7.8197E-02         0.
     3.3862         0. 4.2107E-02         0.
     3.3915         0. 7.3686E-02         0.
     3.3957         0. 4.6618E-02         0.
     3.3999         0. 3.3084E-02         0.
      3.401         0. 6.7671E-02         0.
     3.4052         0.     0.1895         0.
     3.4105         0.     0.3113         0.
     3.4158         0.     0.3699         0.
      3.421         0.      0.379         0.
     3.4253         0.     0.2496         0.
     3.4295         0.      0.185         0.
     3.4358         0.     0.1459         0.
     3.4401         0. 6.9175E-02         0.
     3.4464         0.     0.1308         0.
     3.4506         0. 9.7746E-02         0.
      3.458         0. 9.1731E-02         0.
     3.4601         0. 4.9626E-02         0.
     3.4643         0.     0.1263         0.
     3.4717         0. 9.7747E-02         0.
     3.4833         0.     0.1564         0.
     3.4876         0.      0.206         0.
     3.4918         0.     0.1955         0.
      3.496         0.     0.1023         0.
     3.5013         0. 6.3160E-02         0.
     3.5066         0. 3.1581E-02         0.
     3.5118         0. 2.4063E-02         0.
     3.5171         0. 9.3236E-02         0.
     3.5224         0. 9.0228E-02         0.
     3.5266         0.     0.3218         0.
     3.5319         0.     0.4301         0.
     3.5372         0.     0.2797         0.
     3.5414         0.     0.1338         0.
     3.5467         0. 5.7146E-02         0.
     3.5467         0. 7.5191E-02         0.
      3.553         0. 5.7146E-02         0.
     3.5604         0. 9.0256E-03         0.
     3.5678         0. 3.9101E-02         0.
     3.5731         0. 3.7597E-02         0.
     3.5763         0.     0.1248         0.
     3.5815         0.     0.1384         0.
     3.5879         0. 7.2184E-02         0.
     3.5921         0. 7.5191E-02         0.
     3.5963         0. 7.8199E-02         0.
     3.6027         0. 3.3086E-02         0.
     3.6079         0. 5.4139E-02         0.
     3.6122         0.     0.1098         0.
     3.6174         0. 8.8725E-02         0.
     3.6227         0.      0.212         0.
      3.628         0.     0.2135         0.
     3.6322         0.     0.1218         0.
     3.6364         0.     0.1053         0.
     3.6428         0.     0.1068         0.
      3.647         0.     0.5023         0.
     3.6544         0.     0.7293         0.
     3.6565         0.     0.4181         0.
     3.6576         0.     0.4752         0.
     3.6607         0.     0.3113         0.
     3.6649         0.     0.1323         0.
     3.6713         0. 8.5718E-02         0.
     3.6766         0. 5.1132E-02         0.
     3.6818         0. 6.0155E-02         0.
     3.6871         0. 9.9252E-02         0.
     3.6903         0. 7.2185E-02         0.
     3.6977         0. 7.2185E-02         0.
     3.7019         0. 5.7147E-02         0.
     3.7072         0. 3.7598E-02         0.
     3.7114         0. 6.3162E-02         0.
     3.7156         0. 4.9629E-02         0.
      3.722         0. 4.9629E-02         0.
     3.7272         0. 3.6095E-02         0.
     3.7325         0. 3.9102E-02         0.
     3.7367         0.     0.1113         0.
      3.742         0.     0.1579         0.
     3.7484         0.     0.2451         0.
     3.7526         0.     0.1925         0.
     3.7568         0.     0.1293         0.
     3.7631         0.     0.1699         0.
     3.7663         0.     0.1805         0.
     3.7716         0.     0.1293         0.
     3.7769         0.     0.1173         0.
     3.7821         0.     0.1549         0.
     3.7874         0.     0.4015         0.
     3.7938         0.     0.5038         0.
      3.798         0.     0.4226         0.
     3.8011         0.     0.2722         0.
     3.8064         0.     0.1609         0.
     3.8117         0. 8.8727E-02         0.
      3.817         0. 8.7224E-02         0.
     3.8223         0. 9.1735E-02         0.
     3.8233         0. 7.5194E-02         0.
     3.8275         0. 6.6171E-02         0.
     3.8328         0.     0.1519         0.
     3.8381         0.     0.1835         0.
     3.8434         0.     0.1384         0.
     3.8465         0. 9.3239E-02         0.
     3.8529         0. 6.3164E-02         0.
     3.8582         0. 4.9630E-02         0.
     3.8613         0. 6.0156E-02         0.
     3.8666         0. 6.4668E-02         0.
     3.8719         0.      0.215         0.
     3.8782         0.     0.1744         0.
     3.8835         0.     0.1158         0.
     3.8867         0. 6.7675E-02         0.
      3.892         0. 6.6172E-02         0.
     3.8972         0. 6.9179E-02         0.
     3.9036         0. 9.0232E-02         0.
     3.9099         0.      0.388         0.
     3.9141         0.     0.5805         0.
     3.9183         0.     0.2767         0.
     3.9226         0.      0.191         0.
     3.9279         0.     0.1429         0.
     3.9352         0.      0.215         0.
     3.9395         0.     0.2572         0.
      3.949         0.     0.1384         0.
     3.9532         0.     0.1188         0.
     3.9606         0. 8.8729E-02         0.
     3.9659         0. 5.8654E-02         0.
      3.968         0. 3.6097E-02         0.
     3.9743         0. 3.3090E-02         0.
     3.9806         0. 5.7150E-02         0.
     3.9859         0.      0.185         0.
     3.9912         0.     0.3143         0.
     3.9954         0.     0.3504         0.
     4.0007         0.     0.3489         0.
      4.006         0.     0.2361         0.
     4.0113         0.     0.1354         0.
     4.0176         0. 7.6699E-02         0.
     4.0229         0. 4.3617E-02         0.
     4.0271         0. 2.5572E-02         0.
     4.0313         0. 9.0302E-03         0.
     4.0366         0. 1.8060E-02         0.
     4.0419         0. 2.4076E-02         0.
     4.0472         0. 9.6256E-02         0.
     4.0524         0.     0.1564         0.
     4.0598         0. 9.6256E-02         0.
      4.063         0. 7.5204E-02         0.
     4.0683         0. 5.1144E-02         0.
     4.0746         0. 3.0092E-02         0.
     4.0809         0. 2.1068E-02         0.
     4.0852         0. 2.1068E-02         0.
     4.0873         0. 4.5130E-02         0.
     4.0926         0. 9.3250E-02         0.
     4.0968         0.     0.1594         0.
     4.1031         0.     0.2346         0.
     4.1105         0.     0.2196         0.
     4.1137         0.     0.3549         0.
     4.1147         0.     0.5293         0.
     4.1158         0. 7.2198E-02         0.
     4.1168         0.     0.7639         0.
     4.1242         0.     0.5444         0.
     4.1295         0.     0.3278         0.
     4.1348         0.     0.1504         0.
      4.138         0.     0.1354         0.
     4.1432         0.     0.1293         0.
     4.1485         0.     0.1384         0.
     4.1549         0.     0.2166         0.
     4.1591         0.     0.3639         0.
     4.1644         0.     0.3399         0.
     4.1686         0.     0.2887         0.
     4.1749         0.     0.3218         0.
     4.1791         0.     0.3579         0.
     4.1844         0.     0.3188         0.
     4.1897         0.     0.2196         0.
      4.195         0.     0.1594         0.
     4.2003         0.     0.1384         0.
     4.2045         0.     0.1233         0.
     4.2098         0.     0.1654         0.
      4.214         0.      0.376         0.
     4.2193         0.     0.6617         0.
     4.2224         0.     0.8451         0.
     4.2288         0.     0.6226         0.
     4.2298         0.      0.373         0.
     4.2351         0.      0.382         0.
     4.2372         0.     0.3218         0.
     4.2393         0.     0.2105         0.
     4.2457         0.     0.3369         0.
     4.2552         0.     0.6978         0.
     4.2583         0.     0.5023         0.
     4.2647         0.     0.4361         0.
     4.2699         0.     0.3218         0.
     4.2731         0.     0.2136         0.
     4.2784         0.     0.2075         0.
     4.2847         0.     0.2496         0.
     4.2879         0.     0.2948         0.
     4.2921         0.     0.4602         0.
     4.2995         0.      0.803         0.
     4.3037         0.     0.7339         0.
      4.309         0.     0.6406         0.
     4.3122         0.     0.9444         0.
     4.3185         0.     1.0346         0.
     4.3248         0.     0.7098         0.
     4.3301         0.      0.394         0.
     4.3312         0.     0.3272         0.
     4.3365         0.     0.7959         0.
     4.3417         0.     1.8657         0.
      4.346         0.     2.0956         0.
     4.3512         0.     1.6977         0.
     4.3544         0.     1.0346         0.
     4.3607         0.     0.5925         0.
      4.365         0.     0.4864         0.
     4.3713         0.     0.4864         0.
     4.3766         0.     0.5041         0.
     4.3808         0.     0.3803         0.
     4.3861         0.      0.398         0.
     4.3914         0.     0.4156         0.
     4.3966         0.     0.3095         0.
     4.3988         0.     0.4864         0.
     4.3998         0.     0.7605         0.
     4.4051         0.     1.3706         0.
     4.4093         0.     1.5563         0.
     4.4146         0.     1.6094         0.
     4.4199         0.     1.4148         0.
     4.4304         0.     0.8224         0.
     4.4357         0.     0.7339         0.
     4.4399         0.     0.7605         0.
     4.4463         0.     0.6013         0.
     4.4505         0.     0.4245         0.
     4.4568         0.      0.283         0.
     4.4611         0.     0.2211         0.
     4.4674         0.     0.1062         0.
     4.4716         0.     0.1769         0.
     4.4769         0.     0.4775         0.
     4.4832         0.     0.4333         0.
     4.4874         0.       0.23         0.
      4.498         0. 8.8494E-02         0.
     4.5033         0. 7.0807E-02         0.
     4.5086         0. 7.0807E-02         0.
     4.5117         0.       0.23         0.
     4.5181         0.     0.4068         0.
     4.5233         0.     0.3184         0.
     4.5276         0.     0.2123         0.
     4.5328         0.     0.1062         0.
     4.5392         0. 7.9650E-02         0.
     4.5445         0. 7.0813E-02         0.
     4.5476         0. 9.7338E-02         0.
     4.5571         0.     0.4157         0.
     4.5635         0.     0.3538         0.
     4.5687         0.     0.2477         0.
      4.574         0.     0.2211         0.
     4.5782         0.     0.1858         0.
     4.5835         0.       0.23         0.
     4.5878         0.     0.6898         0.
      4.592         0.     1.0169         0.
     4.5983         0.      0.955         0.
     4.6036         0.     0.7516         0.
     4.6089         0.     0.7428         0.
     4.6131         0.     0.8047         0.
     4.6194         0.     0.6898         0.
     4.6247         0.     0.3803         0.
     4.6289         0.     0.3184         0.
     4.6342         0.     0.1769         0.
     4.6395         0.     0.1858         0.
     4.6427         0.     0.2565         0.
     4.6479         0.     0.2653         0.
     4.6543         0.     0.5218         0.
     4.6595         0.     1.0258         0.
     4.6648         0.     1.0523         0.
     4.6691         0.     0.6898         0.
     4.6743         0.     0.4333         0.
     4.6786         0.     0.9638         0.
     4.6838         0.     1.1495         0.
     4.6902         0.     0.9638         0.
     4.6933         0.     0.9285         0.
     4.6986         0.     0.7428         0.
     4.7049         0.     0.4952         0.
     4.7102         0.      0.398         0.
     4.7145         0.     0.7516         0.
     4.7197         0.     0.9727         0.
      4.725         0.     0.9462         0.
     4.7292         0.     0.8578         0.
     4.7356         0.     0.7516         0.
     4.7398         0.      1.123         0.
      4.744         0.     1.7243         0.
     4.7503         0.     1.6801         0.
     4.7556         0.     1.1319         0.
     4.7588         0.     0.6544         0.
     4.7662         0.     0.5129         0.
     4.7704         0.     0.4068         0.
     4.7757         0.     0.5041         0.
      4.781         0.     0.5837         0.
     4.7852         0.     0.7428         0.
     4.7915         0.     0.8401         0.
     4.7958         0.     1.6713         0.
        4.8         0.     1.6889         0.
     4.8095         0.     0.8931         0.
     4.8137         0.     1.7596         0.
       4.82         0.     2.1487         0.
     4.8253         0.     2.0073         0.
     4.8295         0.     1.2115         0.
     4.8338         0.      0.734         0.
      4.839         0.     0.4599         0.
     4.8443         0.     0.6279         0.
     4.8496         0.     0.6102         0.
     4.8549         0.     0.5925         0.
     4.8602         0.     0.6898         0.
     4.8644         0.     0.8224         0.
     4.8707         0.     0.9285         0.
     4.8749         0.     1.4679         0.
     4.8802         0.     1.9896         0.
     4.8855         0.     2.1929         0.
     4.8929         0.     2.1841         0.
     4.9003         0.     1.3441         0.
     4.9056         0.      0.734         0.
     4.9098         0.     0.5129         0.
     4.9151         0.     0.4334         0.
     4.9214         0.     0.4245         0.
     4.9246         0.     0.6279         0.
     4.9309         0.      0.566         0.
     4.9351         0.     0.5041         0.
     4.9415         0.     0.4422         0.
     4.9467         0.     0.5571         0.
     4.9489         0.     0.8224         0.
     4.9562         0.     0.7693         0.
     4.9605         0.     0.7251         0.
     4.9657         0.     0.6898         0.
      4.971         0.     0.6102         0.
     4.9774         0.     0.6102         0.
     4.9858         0.     0.8667         0.
     4.9911         0.     1.0258         0.
     4.9953         0.     1.6271         0.
     5.0016         0.     3.2717         0.
     5.0111         0.     1.9012         0.
     5.0154         0.     1.2292         0.
     5.0196         0.     0.7605         0.
     5.0249         0.     0.6544         0.
     5.0312         0.     0.8843         0.
     5.0344         0.      1.689         0.
     5.0407         0.     2.0957         0.
     5.0449         0.      1.857         0.
     5.0513         0.     1.9807         0.
     5.0544         0.     2.2283         0.
     5.0576         0.     2.2725         0.
     5.0618         0.     2.3256         0.
      5.065         0.      1.689         0.
     5.0703         0.     1.4768         0.
     5.0745         0.     1.1496         0.
     5.0808         0.     1.6801         0.
      5.084         0.     1.7155         0.
     5.0903         0.     2.2018         0.
     5.0956         0.     2.2018         0.
     5.0998         0.     1.5121         0.
     5.1104         0.     0.5572         0.
     5.1146         0.     0.4511         0.
     5.1199         0.     0.5483         0.
     5.1241         0.      0.398         0.
     5.1283         0.     0.4334         0.
     5.1357         0.     0.5572         0.
      5.141         0.     0.9639         0.
     5.1452         0.     1.1849         0.
     5.1505         0.     0.9816         0.
     5.1537         0.     0.6898         0.
      5.159         0.     0.5306         0.
     5.1632         0.     0.5041         0.
     5.1674         0.     0.5218         0.
     5.1695         0.     0.6544         0.
     5.1748         0.     0.7163         0.
      5.179         0.     0.8843         0.
     5.1906         0.      2.025         0.
     5.1959         0.     1.5475         0.
     5.2001         0.     1.1407         0.
     5.2054         0.     2.0957         0.
     5.2096         0.     2.7235         0.
      5.216         0.     2.1222         0.
     5.2202         0.     2.0692         0.
     5.2255         0.     1.8835         0.
     5.2297         0.     1.7597         0.
      5.236         0.      1.857         0.
     5.2413         0.     1.9984         0.
     5.2466         0.     1.9012         0.
     5.2498         0.     1.3264         0.
      5.254         0.     0.9374         0.
     5.2593         0.     0.7429         0.
     5.2645         0.     0.7252         0.
     5.2698         0.     0.6898         0.
     5.2751         0.     0.5925         0.
     5.2793         0.      0.787         0.
     5.2846         0.     1.3883         0.
     5.2899         0.      2.246         0.
     5.2941         0.     2.3521         0.
     5.3004         0.     2.5466         0.
     5.3047         0.     2.1841         0.
     5.3089         0.     1.6005         0.
     5.3142         0.      1.238         0.
     5.3194         0.     1.0877         0.
     5.3247         0.     1.1231         0.
       5.33         0.     1.1496         0.
     5.3342         0.     1.0169         0.
     5.3395         0.     0.9993         0.
     5.3437         0.     1.0523         0.
      5.349         0.     1.0523         0.
     5.3543         0.     1.0346         0.
     5.3585         0.     1.1938         0.
     5.3627         0.     1.3971         0.
      5.368         0.     1.6625         0.
     5.3733         0.     1.4237         0.
     5.3786         0.     1.2646         0.
     5.3891         0.     2.1576         0.
     5.3955         0.     3.4928         0.
     5.3997         0.     3.3336         0.
      5.405         0.     2.9534         0.
     5.4113         0.     3.1567         0.
     5.4145         0.     3.1214         0.
     5.4187         0.     2.4936         0.
      5.424         0.     2.3698         0.
     5.4293         0.     2.3344         0.
     5.4335         0.     1.9189         0.
     5.4377         0.     1.5387         0.
      5.444         0.     1.6802         0.
     5.4472         0.     1.4591         0.
     5.4514         0.     1.0169         0.
     5.4567         0.     0.9639         0.
      5.462         0.     1.0789         0.
     5.4662         0.     1.1938         0.
     5.4715         0.     0.7694         0.
     5.4778         0.     0.7517         0.
      5.481         0.     0.6279         0.
     5.4884         0.      0.619         0.
     5.4958         0.     1.0258         0.
EndData:
