Comment:    Automatically converted from EXFOR on 2019-11-11,14:09:54
            by the IAEA-NDS EXFOR Web-Retrieval System
            program ver-2019-06-26 (V.Zerkin).
            X4Title: "Levels of 28Si from the 24Mg(alpha,alpha)24Mg and
             24Mg(alpha,gamma)28Si reactions"
            X4Author: J.Cseh, E.Koltay, Z.Mate, E.Somorjai, 
            L.Zolnai
            EXFOR: F0590002    Created: 2003-08-21  Updated: 2011-11-23
            X4Reaction:12-MG-24(A,EL)12-MG-24,,DA; X4Points:3566
            ENSDF:LevelEnergy=0.00
            AME2016: M1=4.002603254 M2=23.985041697 M3=4.002603254 M4=23.985041697

Version:      R33
X4Number:     F0590002 20111123
Source:       J.Cseh+(1982), Jour. Nuclear Physics, Section A, Vol.385, p.43
Reaction:     24Mg(a,a0)24Mg
Distribution: Energy
Sigfactors:   1.00, 0.00
Enfactors:    1.00, 0.00, 0.00, 0.00
Units:        mb
Composition:
Masses:       4.0, 24.0, 4.0, 24.0
Zeds:         2, 12, 2, 12
Qvalue:       -0.0, 0.00, 0.00, 0.00, 0.00
Theta:        162.5
Data:
 3184.50,     5.00,   101.26,     0.00
 3186.60,     5.00,   95.583,     0.00
 3188.70,     5.00,   94.883,     0.00
 3190.70,     5.00,   97.029,     0.00
 3192.80,     5.00,   104.86,     0.00
 3193.50,     5.00,   100.60,     0.00
 3194.20,     5.00,   94.914,     0.00
 3196.90,     5.00,   94.929,     0.00
 3197.60,     5.00,   91.377,     0.00
 3197.70,     5.00,   83.554,     0.00
 3198.40,     5.00,   78.579,     0.00
 3199.20,     5.00,   66.492,     0.00
 3201.10,     5.00,   86.418,     0.00
 3201.80,     5.00,   92.111,     0.00
 3203.10,     5.00,   109.19,     0.00
 3203.80,     5.00,   101.37,     0.00
 3205.80,     5.00,   105.29,     2.49
 3207.20,     5.00,    97.12,     0.00
 3207.90,     5.00,   104.24,     0.00
 3209.30,     5.00,   97.132,     0.00
 3210.60,     5.00,   107.10,     0.00
 3211.40,     5.00,   97.143,     0.00
 3213.40,     5.00,   99.288,     0.00
 3216.20,     5.00,   100.01,     0.00
 3217.50,     5.00,   105.00,     0.00
 3221.60,     5.00,   103.60,     0.00
 3227.20,     5.00,   100.79,     0.00
 3232.00,     5.00,   95.124,     0.00
 3236.80,     5.00,   97.284,     0.00
 3240.90,     5.00,   102.29,     0.00
 3245.70,     5.00,   96.623,     0.00
 3251.20,     5.00,   100.21,     0.00
 3256.80,     5.00,   90.283,     0.00
 3260.90,     5.00,   85.327,     0.00
 3265.70,     5.00,    94.60,     0.00
 3271.90,     5.00,   86.099,     0.00
 3280.20,     5.00,    83.30,     0.00
 3285.80,     5.00,   69.818,     0.00
 3287.10,     5.00,   76.226,     0.00
 3289.20,     5.00,   66.992,     0.00
 3291.20,     5.00,   71.271,     0.00
 3292.00,     5.00,   57.761,     0.00
 3294.70,     5.00,   60.621,     0.00
 3297.50,     5.00,   49.968,     0.00
 3297.60,     5.00,   41.434,     0.00
 3299.70,     5.00,  25.7985,   2.8445
 3301.80,     5.00,   20.831,     0.00
 3302.40,     5.00,   44.305,     0.00
 3303.30,     5.00,   131.08,     0.00
 3303.50,     5.00,   89.831,     0.00
 3305.00,     5.00,   192.97,     0.00
 3307.10,     5.00,   201.51,     0.00
 3307.80,     5.00,   193.70,     0.00
 3308.50,     5.00,   189.43,     0.00
 3310.00,     5.00,   166.68,     0.00
 3310.70,     5.00,   159.57,     0.00
 3312.10,     5.00,   156.02,     0.00
 3312.20,     5.00,   144.64,     0.00
 3314.20,     5.00,   146.79,     0.00
 3314.90,     5.00,   154.62,     0.00
 3315.00,     5.00,   126.17,     0.00
 3317.00,     5.00,   139.69,     0.00
 3318.50,     5.00,   126.19,     0.00
 3319.80,     5.00,   136.15,     0.00
 3319.90,     5.00,   119.79,     0.00
 3320.50,     5.00,   129.04,     0.00
 3322.60,     5.00,   119.81,     0.00
 3324.00,     5.00,   124.79,     0.00
 3325.40,     5.00,   113.42,     0.00
 3326.00,     5.00,   121.96,     0.00
 3329.50,     5.00,   110.60,     0.00
 3333.00,     5.00,   107.06,     0.00
 3337.80,     5.00,   104.96,     0.00
 3342.60,     5.00,   110.67,     0.00
 3349.50,     5.00,   100.75,     0.00
 3355.70,     5.00,   105.06,     0.00
 3358.50,     5.00,   98.671,     0.00
 3363.20,     5.00,   105.10,     0.00
 3369.50,     5.00,   95.176,     0.00
 3375.00,     5.00,    91.65,     0.00
 3377.70,     5.00,   96.644,     0.00
 3379.80,     5.00,    97.01,     3.20
 3381.20,     5.00,   89.551,     0.00
 3382.50,     5.00,   103.07,     0.00
 3383.20,     5.00,   95.252,     0.00
 3386.70,     5.00,   93.137,     0.00
 3390.10,     5.00,   88.889,     0.00
 3390.20,     5.00,   86.044,     0.00
 3391.50,     5.00,   100.28,     0.00
 3392.10,     5.00,   103.84,     0.00
 3393.50,     5.00,    96.02,     0.00
 3393.60,     5.00,   87.486,     0.00
 3395.60,     5.00,  92.4755,   1.4225
 3397.10,     5.00,   70.436,     0.00
 3397.20,     5.00,   61.901,     0.00
 3398.60,     5.00,   57.641,     0.00
 3401.30,     5.00,   61.924,     5.69
 3401.90,     5.00,   81.842,     0.00
 3402.50,     5.00,   95.359,     0.00
 3403.90,     5.00,   90.388,     0.00
 3404.50,     5.00,   99.638,     0.00
 3405.90,     5.00,   97.512,     0.00
 3407.30,     5.00,   95.385,     0.00
 3408.70,     5.00,   91.837,     0.00
 3410.10,     5.00,   86.866,     0.00
 3411.40,     5.00,   95.408,     0.00
 3412.90,     5.00,   77.636,     0.00
 3413.50,     5.00,   100.40,     0.00
 3414.80,     5.00,   103.25,     0.00
 3415.60,     5.00,   94.009,     0.00
 3417.60,     5.00,   89.042,     0.00
 3421.80,     5.00,   82.664,     0.00
 3423.80,     5.00,   89.076,     0.00
 3427.30,     5.00,   89.095,     0.00
 3430.00,     5.00,   96.223,     0.00
 3433.50,     5.00,   86.996,     0.00
 3436.90,     5.00,    84.17,     0.00
 3441.00,     5.00,    94.15,     0.00
 3446.50,     5.00,   88.491,     0.00
 3449.30,     5.00,   74.282,     0.00
 3450.00,     5.00,   86.376,     0.00
 3452.70,     5.00,   79.279,     0.00
 3455.50,     5.00,   81.428,     0.00
 3460.30,     5.00,   74.343,     0.00
 3461.10,     5.00,   69.368,     0.00
 3463.10,     5.00,   75.069,     0.00
 3463.80,     5.00,   68.672,     0.00
 3464.50,     5.00,   61.564,     0.00
 3465.90,     5.00,   71.528,     0.00
 3467.30,     5.00,   66.558,     0.00
 3468.70,     5.00,   55.186,     0.00
 3470.00,     5.00,   58.038,     0.00
 3472.80,     5.00,   62.321,     0.00
 3473.50,     5.00,   55.924,     0.00
 3476.30,     5.00,   54.516,     0.00
 3477.70,     5.00,   48.123,     0.00
 3479.10,     5.00,   37.818,    4.623
 3481.20,     5.00,   29.651,     0.00
 3483.20,     5.00,   33.929,     0.00
 3483.30,     5.00,   23.261,     0.00
 3484.30,     5.00,   99.369,     0.00
 3485.10,     5.00,   73.058,     0.00
 3486.20,     5.00,   124.98,     0.00
 3486.30,     5.00,   112.18,     0.00
 3487.50,     5.00,   139.93,     0.00
 3488.10,     5.00,   147.75,     0.00
 3488.80,     5.00,   153.45,     0.00
 3490.80,     5.00,   159.15,     0.00
 3491.50,     5.00,   154.17,     0.00
 3494.30,     5.00,   144.23,     0.00
 3498.60,     5.00,  124.345,    2.135
 3500.70,     5.00,   117.95,     0.00
 3501.30,     5.00,   122.22,     0.00
 3503.40,     5.00,   117.26,     0.00
 3506.20,     5.00,   110.87,     0.00
 3507.60,     5.00,   113.72,     0.00
 3509.60,     5.00,   110.18,     0.00
 3510.30,     5.00,   108.76,     0.00
 3512.40,     5.00,   103.08,     0.00
 3514.50,     5.00,   99.537,     0.00
 3516.60,     5.00,   90.302,     0.00
 3517.20,     5.00,   102.40,     0.00
 3519.30,     5.00,   99.563,     0.00
 3526.20,     5.00,   91.067,     0.00
 3528.30,     5.00,   101.04,     0.00
 3531.80,     5.00,   88.964,     0.00
 3542.80,     5.00,   87.602,     0.00
 3545.50,     5.00,   85.484,     0.00
 3546.90,     5.00,   75.535,     0.00
 3548.20,     5.00,   92.612,     0.00
 3550.40,     5.00,   74.131,     0.00
 3551.70,     5.00,   84.096,     0.00
 3553.80,     5.00,   76.995,     0.00
 3555.20,     5.00,    69.18,     0.00
 3560.00,     5.00,   69.206,     0.00
 3562.60,     5.00,   101.23,     0.00
 3564.60,     5.00,  119.375,    1.775
 3567.30,     5.00,   121.17,     0.00
 3568.00,     5.00,   118.33,     0.00
 3570.10,     5.00,   120.47,     0.00
 3571.50,     5.00,   113.37,     0.00
 3575.00,     5.00,   110.54,     0.00
 3577.00,     5.00,   104.86,     0.00
 3581.10,     5.00,   109.15,     0.00
 3583.90,     5.00,   99.211,     0.00
 3585.40,     5.00,   93.529,     0.00
 3587.40,     5.00,   99.941,     0.00
 3587.50,     5.00,   86.428,     0.00
 3590.10,     5.00,   97.112,     0.00
 3592.90,     5.00,   90.726,     0.00
 3596.30,     5.00,   98.568,     0.00
 3599.10,     5.00,  100.007,    1.423
 3601.80,     5.00,   100.02,     0.00
 3603.20,     5.00,   97.895,     0.00
 3605.30,     5.00,   97.195,     0.00
 3606.70,     5.00,   93.647,     0.00
 3607.40,     5.00,   90.095,     0.00
 3609.40,     5.00,   100.06,     0.00
 3611.50,     5.00,    85.85,     0.00
 3615.60,     5.00,   100.81,     0.00
 3617.60,     5.00,   99.398,     0.00
 3619.00,     5.00,   102.25,     0.00
 3621.80,     5.00,   88.041,     0.00
 3623.10,     5.00,   102.98,     0.00
 3625.20,     5.00,   90.194,     0.00
 3628.00,     5.00,   97.321,     0.00
 3628.70,     5.00,   90.924,     0.00
 3632.10,     5.00,   88.098,     0.00
 3632.80,     5.00,   98.771,     0.00
 3634.80,     5.00,   93.803,     0.00
 3637.00,     5.00,   84.569,     0.00
 3639.70,     5.00,   83.162,     0.00
 3641.70,     5.00,   90.997,     0.00
 3644.40,     5.00,   98.835,     0.00
 3645.80,     5.00,   102.40,     0.00
 3647.20,     5.00,   91.027,     0.00
 3650.00,     5.00,    83.93,     0.00
 3652.10,     5.00,   86.075,     0.00
 3654.10,     5.00,   92.488,     0.00
 3655.40,     5.00,   104.59,     0.00
 3658.20,     5.00,   90.377,     0.00
 3661.00,     5.00,   79.724,     0.00
 3662.40,     5.00,   88.266,     0.00
 3664.40,     5.00,   92.545,     0.00
 3666.50,     5.00,   87.578,     0.00
 3668.60,     5.00,   89.723,     0.00
 3670.60,     5.00,   83.334,     0.00
 3672.60,     5.00,   106.82,     0.00
 3674.10,     5.00,    87.62,     0.00
 3676.80,     5.00,   88.346,     0.00
 3678.20,     5.00,   94.044,     0.00
 3680.20,     5.00,   94.055,     0.00
 3683.70,     5.00,    85.54,     0.00
 3686.40,     5.00,   89.822,     0.00
 3687.80,     5.00,  87.6965,   4.9785
 3689.20,     5.00,   90.549,     0.00
 3691.20,     5.00,   93.405,     0.00
 3692.60,     5.00,   89.145,     0.00
 3696.80,     5.00,   82.767,     0.00
 3699.50,     5.00,   83.494,     0.00
 3702.30,     5.00,   84.932,     0.00
 3703.60,     5.00,   97.741,     0.00
 3705.00,     5.00,   83.524,     0.00
 3707.00,     5.00,   89.937,     0.00
 3709.10,     5.00,    97.06,     0.00
 3711.80,     5.00,   98.498,     0.00
 3713.90,     5.00,   101.35,     0.00
 3715.30,     5.00,   96.383,     0.00
 3718.00,     5.00,   93.554,     0.00
 3719.50,     5.00,   80.048,     0.00
 3722.20,     5.00,   80.064,     0.00
 3723.50,     5.00,   92.162,     0.00
 3725.60,     5.00,   85.772,     0.00
 3727.00,     5.00,   83.646,     0.00
 3729.00,     5.00,   91.481,     0.00
 3731.20,     5.00,   80.113,     0.00
 3733.90,     5.00,   79.417,     0.00
 3736.60,     5.00,   91.523,     0.00
 3738.70,     5.00,   84.423,     0.00
 3740.70,     5.00,    93.68,     0.00
 3744.10,     5.00,   93.699,     0.00
 3744.20,     5.00,   88.009,     0.00
 3747.60,     5.00,   88.739,     0.00
 3748.30,     5.00,    86.61,     0.00
 3750.40,     5.00,   84.487,     0.00
 3752.40,     5.00,   88.055,     0.00
 3755.20,     5.00,   83.092,     0.00
 3758.60,     5.00,   86.667,     0.00
 3760.70,     5.00,   84.545,     0.00
 3764.80,     5.00,   94.525,     0.00
 3768.20,     5.00,   90.632,    4.623
 3770.30,     5.00,   95.977,     0.00
 3771.00,     5.00,   86.735,     0.00
 3774.40,     5.00,   87.466,     0.00
 3776.50,     5.00,   90.322,     0.00
 3777.90,     5.00,    84.64,     0.00
 3779.20,     5.00,   89.626,     0.00
 3781.30,     5.00,   86.081,     0.00
 3782.00,     5.00,   91.064,     0.00
 3784.10,     5.00,   69.739,     0.00
 3786.20,     5.00,   74.729,     0.00
 3787.60,     5.00,   69.758,     0.00
 3788.90,     5.00,    78.30,     0.00
 3792.00,     5.00,   140.19,     0.00
 3794.10,     5.00,   138.78,     0.00
 3794.80,     5.00,   145.19,     0.00
 3797.60,     5.00,   135.25,     0.00
 3798.30,     5.00,   130.98,     0.00
 3799.00,     5.00,   124.59,     0.00
 3801.00,     5.00,   132.42,     0.00
 3803.80,     5.00,   130.30,     0.00
 3804.60,     5.00,   105.41,     0.00
 3807.40,     5.00,    82.67,     0.00
 3808.90,     5.00,   63.831,    1.778
 3811.10,     5.00,   50.685,     0.00
 3813.20,     5.00,   42.873,     0.00
 3815.90,     5.00,    44.31,     0.00
 3819.90,     5.00,   58.558,     0.00
 3821.40,     5.00,   50.742,     0.00
 3824.10,     5.00,   53.602,     0.00
 3826.80,     5.00,   53.617,     0.00
 3828.20,     5.00,   61.448,     0.00
 3830.90,     5.00,   60.752,     0.00
 3835.80,     5.00,   55.089,     0.00
 3837.80,     5.00,   62.924,     0.00
 3840.50,     5.00,   67.918,     0.00
 3844.00,     5.00,   67.937,     0.00
 3846.70,     5.00,   64.396,     0.00
 3848.70,     5.00,   77.921,     0.00
 3850.10,     5.00,   68.683,     0.00
 3852.90,     5.00,    70.12,     0.00
 3854.90,     5.00,    75.11,     0.00
 3857.00,     5.00,   68.721,     0.00
 3858.30,     5.00,   77.263,     0.00
 3861.10,     5.00,   75.856,     0.00
 3862.40,     5.00,   86.532,     0.00
 3865.20,     5.00,   78.012,     0.00
 3869.40,     5.00,   70.923,     0.00
 3873.40,     5.00,   89.438,     0.00
 3873.50,     5.00,   77.347,     0.00
 3878.20,     5.00,   88.753,     0.00
 3878.90,     5.00,   81.645,     0.00
 3882.40,     5.00,   80.241,     0.00
 3883.10,     5.00,   83.801,     0.00
 3885.10,     5.00,   80.257,     0.00
 3888.60,     5.00,   83.832,     0.00
 3889.90,     5.00,   88.107,     0.00
 3892.70,     5.00,   80.299,     0.00
 3895.40,     5.00,   86.004,     0.00
 3896.20,     5.00,   75.339,     0.00
 3898.80,     5.00,   89.579,     0.00
 3899.50,     5.00,   91.716,     0.00
 3901.60,     5.00,   92.439,     0.00
 3904.30,     5.00,    90.32,     0.00
 3907.80,     5.00,   80.383,     0.00
 3908.50,     5.00,   91.766,     0.00
 3911.90,     5.00,   82.539,     0.00
 3916.00,     5.00,   89.674,     0.00
 3917.40,     5.00,   87.548,     0.00
 3920.10,     5.00,   92.542,     0.00
 3922.20,     5.00,   84.019,     0.00
 3924.20,     5.00,   98.255,     0.00
 3927.00,     5.00,   93.291,     0.00
 3927.70,     5.00,   84.049,     0.00
 3930.50,     5.00,   84.064,     0.00
 4203.10,     5.00,   67.662,     0.00
 4203.80,     5.00,   64.861,     0.00
 4204.40,     5.00,   70.464,     0.00
 4207.10,     5.00,   72.566,     0.00
 4208.50,     5.00,   64.865,     0.00
 4210.50,     5.00,   73.969,     0.00
 4213.20,     5.00,   65.568,     0.00
 4216.00,     5.00,   64.169,     0.00
 4218.00,     5.00,   64.871,     0.00
 4219.40,     5.00,   58.569,     0.00
 4220.70,     5.00,   59.971,     0.00
 4224.10,     5.00,   69.076,     0.00
 4225.50,     5.00,   63.475,     0.00
 4227.50,     5.00,   68.378,     0.00
 4230.90,     5.00,   73.982,     0.00
 4233.60,     5.00,   61.379,     0.00
 4235.60,     5.00,   63.481,     0.00
 4237.70,     5.00,   69.785,     0.00
 4240.40,     5.00,   75.389,     0.00
 4243.10,     5.00,   57.884,     0.00
 4245.10,     5.00,   63.487,     0.00
 4247.20,     5.00,    67.69,     0.00
 4249.90,     5.00,   66.992,     0.00
 4256.70,     5.00,   57.193,     0.00
 4258.70,     5.00,   55.093,     0.00
 4260.70,     5.00,    42.49,     0.00
 4262.80,     5.00,   29.187,     0.00
 4264.10,     5.00,   37.591,     0.00
 4266.80,     5.00,   43.194,     0.00
 4268.90,     5.00,   69.105,     0.00
 4269.60,     5.00,   51.599,     0.00
 4272.30,     5.00,   54.402,     0.00
 4274.30,     5.00,   62.806,     0.00
 4277.00,     5.00,   60.707,     0.00
 4277.70,     5.00,   64.909,     0.00
 4281.10,     5.00,   67.012,     0.00
 4282.40,     5.00,    58.61,     0.00
 4285.20,     5.00,   67.715,     0.00
 4286.50,     5.00,   72.617,     0.00
 4289.20,     5.00,   70.518,     0.00
 4290.60,     5.00,   55.114,     0.00
 4292.60,     5.00,    69.82,     0.00
 4294.00,     5.00,   73.322,     0.00
 4296.70,     5.00,   69.823,     0.00
 4298.70,     5.00,   65.623,     0.00
 4300.10,     5.00,   58.621,     0.00
 4302.80,     5.00,   60.723,     0.00
 4303.50,     5.00,   53.021,     0.00
 4305.50,     5.00,   51.622,     0.00
 4306.90,     5.00,   29.215,     0.00
 4309.60,     5.00,   46.373,    6.652
 4312.30,     5.00,   52.327,     0.00
 4313.00,     5.00,   48.126,     0.00
 4315.70,     5.00,   63.533,     0.00
 4317.70,     5.00,   57.932,     0.00
 4323.10,     5.00,   62.137,     0.00
 4325.20,     5.00,   54.436,     0.00
 4327.20,     5.00,   55.837,     0.00
 4327.90,     5.00,    61.44,     0.00
 4331.30,     5.00,   61.442,     0.00
 4332.60,     5.00,   66.344,     0.00
 4335.40,     5.00,   59.344,     0.00
 4337.40,     5.00,   57.244,     0.00
 4338.70,     5.00,    71.25,     0.00
 4340.80,     5.00,   65.649,     0.00
 4342.80,     5.00,   61.449,     0.00
 4344.80,     5.00,    60.75,     0.00
 4346.90,     5.00,    57.25,     0.00
 4349.60,     5.00,   59.353,     0.00
 4351.60,     5.00,   58.304,    3.151
 4354.30,     5.00,   64.258,     0.00
 4356.40,     5.00,    67.06,     0.00
 4360.40,     5.00,   64.262,     0.00
 4361.80,     5.00,   59.361,     0.00
 4363.80,     5.00,   61.463,     0.00
 4366.60,     5.00,   64.966,     0.00
 4368.60,     5.00,   48.861,     0.00
 4370.60,     5.00,   57.966,     0.00
 4372.70,     5.00,   62.869,     0.00
 4374.70,     5.00,   53.767,     0.00
 4376.70,     5.00,    57.27,     0.00
 4378.80,     5.00,   62.173,     0.00
 4382.20,     5.00,   67.076,     0.00
 4383.50,     5.00,   60.775,     0.00
 4386.90,     5.00,   64.979,     0.00
 4392.30,     5.00,   68.483,     0.00
 4401.20,     5.00,   64.288,     0.00
 4404.50,     5.00,   62.889,     0.00
 4409.30,     5.00,   70.595,     0.00
 4413.40,     5.00,   66.396,     0.00
 4417.40,     5.00,   63.598,     0.00
 4420.80,     5.00,    62.90,     0.00
 4425.60,     5.00,   62.903,     0.00
 4429.00,     5.00,   64.305,     0.00
 4437.80,     5.00,   63.611,     0.00
 4444.60,     5.00,   62.215,     0.00
 4449.30,     5.00,   60.817,     0.00
 4452.70,     5.00,   58.018,     0.00
 4456.10,     5.00,   58.721,     0.00
 4458.80,     5.00,   48.219,     0.00
 4464.90,     5.00,   47.523,     0.00
 4469.70,     5.00,    60.83,     0.00
 4474.40,     5.00,   60.833,     0.00
 4477.80,     5.00,    72.74,     0.00
 4481.90,     5.00,   89.548,     0.00
 4485.20,     5.00,   112.66,     0.00
 4489.30,     5.00,   90.953,     0.00
 4494.10,     5.00,   90.956,     0.00
 4498.10,     5.00,   72.753,     0.00
 4498.80,     5.00,   79.055,     0.00
 4502.90,     5.00,   81.859,     0.00
 4507.00,     5.00,   84.662,     0.00
 4511.00,     5.00,   91.667,     0.00
 4515.80,     5.00,   104.98,     0.00
 4519.20,     5.00,   111.28,     0.00
 4522.50,     5.00,   125.99,     0.00
 4525.90,     5.00,   128.79,     0.00
 4529.30,     5.00,   117.59,     0.00
 4533.40,     5.00,   89.581,     0.00
 4538.20,     5.00,   83.282,     0.00
 4540.90,     5.00,    74.18,     0.00
 4542.90,     5.00,    41.27,     0.00
 4545.60,     5.00,   48.275,     0.00
 4546.30,     5.00,   23.767,     0.00
 4548.40,     5.00,   34.272,     0.00
 4551.80,     5.00,   20.269,     0.00
 4552.50,     5.00,   9.0655,     0.00
 4556.50,     5.00,   6.9673,     0.00
 4558.60,     5.00,   8.3691,     0.00
 4559.20,     5.00,   18.873,     0.00
 4564.00,     5.00,   10.473,     0.00
 4568.70,     5.00,    20.98,     0.00
 4572.10,     5.00,    42.69,     0.00
 4576.80,     5.00,    64.40,     0.00
 4579.60,     5.00,   56.699,     0.00
 4585.00,     5.00,   60.904,     0.00
 4589.00,     5.00,   67.909,     0.00
 4593.10,     5.00,   56.708,     0.00
 4597.20,     5.00,   62.312,     0.00
 4601.30,     5.00,   54.612,     0.00
 4609.40,     5.00,   58.819,     0.00
 4611.40,     5.00,   46.216,     0.00
 4614.20,     5.00,   37.815,     0.00
 4617.60,     5.00,   28.714,     0.00
 4620.30,     5.00,   22.413,     0.00
 4623.70,     5.00,   28.718,     0.00
 4626.40,     5.00,   32.921,     0.00
 4632.50,     5.00,    49.03,     0.00
 4635.90,     5.00,   53.934,     0.00
 4642.00,     5.00,   63.041,     0.00
 4644.70,     5.00,   56.041,     0.00
 4649.40,     5.00,   93.157,     0.00
 4652.10,     5.00,   109.26,     0.00
 4655.50,     5.00,   126.77,     0.00
 4658.90,     5.00,   88.961,     0.00
 4661.00,     5.00,   65.154,     0.00
 4664.40,     5.00,   51.852,     0.00
 4666.40,     5.00,   51.853,     0.00
 4667.10,     5.00,   57.455,     0.00
 4669.80,     5.00,   61.659,     0.00
 4672.50,     5.00,   56.058,     0.00
 4675.90,     5.00,   66.564,     0.00
 4679.30,     5.00,   60.264,     0.00
 4682.70,     5.00,   60.266,     0.00
 4686.70,     5.00,   60.269,     0.00
 4690.10,     5.00,   59.571,     0.00
 4693.50,     5.00,   70.077,     0.00
 4697.60,     5.00,   67.278,     0.00
 4701.00,     5.00,   60.978,     0.00
 4704.40,     5.00,    87.59,     0.00
 4707.80,     5.00,   74.988,     0.00
 4711.20,     5.00,   63.786,     0.00
 4713.90,     5.00,   68.689,     0.00
 4716.60,     5.00,    65.19,     0.00
 4720.00,     5.00,   73.595,     0.00
 4722.70,     5.00,   66.594,     0.00
 4726.80,     5.00,   54.693,     0.00
 4729.50,     5.00,   66.599,     0.00
 4733.50,     5.00,   57.498,     0.00
 4737.60,     5.00,   62.402,     0.00
 4741.00,     5.00,   66.606,     0.00
 4745.10,     5.00,   59.606,     0.00
 4747.10,     5.00,   49.804,     0.00
 4749.80,     5.00,   51.907,     0.00
 4751.20,     5.00,   39.303,     0.00
 4753.90,     5.00,   40.705,     0.00
 4759.30,     5.00,   35.107,     0.00
 4760.70,     5.00,   31.607,     0.00
 4765.40,     5.00,   37.912,     0.00
 4768.80,     5.00,   72.926,     0.00
 4773.50,     5.00,   85.533,     0.00
 4776.90,     5.00,   107.94,     0.00
 4781.00,     5.00,   152.06,     0.00
 4783.60,     5.00,   208.08,     0.00
 4788.40,     5.00,   215.79,     0.00
 4791.80,     5.00,   116.36,     0.00
 4795.20,     5.00,   98.152,     0.00
 4798.00,     5.00,    89.05,     0.00
 4800.70,     5.00,   48.438,     0.00
 4804.10,     5.00,   26.733,     0.00
 4808.20,     5.00,   29.536,     0.00
 4812.90,     5.00,   28.139,     0.00
 4822.40,     5.00,   34.447,     0.00
 4826.50,     5.00,    34.45,     0.00
 4830.60,     5.00,   39.354,     0.00
 4833.30,     5.00,   37.255,     0.00
 4837.30,     5.00,   35.857,     0.00
 4844.10,     5.00,   38.662,     0.00
 4848.20,     5.00,   44.267,     0.00
 4851.60,     5.00,   49.171,     0.00
 4855.00,     5.00,    41.47,     0.00
 4858.40,     5.00,    35.17,     0.00
 4862.40,     5.00,   39.374,     0.00
 4865.80,     5.00,   44.278,     0.00
 4869.20,     5.00,    44.28,     0.00
 4873.30,     5.00,   38.681,     0.00
 4876.70,     5.00,   45.686,     0.00
 4880.10,     5.00,   40.786,     0.00
 4884.10,     5.00,   36.587,     0.00
 4887.50,     5.00,   33.788,     0.00
 4890.90,     5.00,   49.896,     0.00
 4894.30,     5.00,   39.395,     0.00
 4897.70,     5.00,   35.896,     0.00
 4900.40,     5.00,    43.60,     0.00
 4903.10,     5.00,   35.199,     0.00
 4907.20,     5.00,   35.902,     0.00
 4910.60,     5.00,   35.204,     0.00
 4913.30,     5.00,   32.404,     0.00
 4917.40,     5.00,   33.107,     0.00
 4921.50,     5.00,   38.712,     0.00
 4924.80,     5.00,   36.613,     0.00
 4928.20,     5.00,   35.215,     0.00
 4933.00,     5.00,    42.22,     0.00
 4935.70,     5.00,   46.424,     0.00
 4938.40,     5.00,   39.423,     0.00
 4943.20,     5.00,   45.028,     0.00
EndData:
