Comment: Data were digitized. Energy digitizing error is 0.008 MeV
         data digitizing error is 0.018 mb/sr.
         Data were converted from the center-of mass to
         the laboratory system.

Version: R33
Source: J.M.Morris+(1968), Jour. Nuclear Physics, Section A, Vol.112, p.97
Name: Taova Sophiya 
Address1: All-Russia Scientific Research Institute of Experimental Physics
Address2: 607190, Mira, 37, Sarov, Nizhni Novgorod reg., Russia
Address3: tel: (831-30) 2-77-79   fax:( 831-30) 4-55-69
Address4: e-mail: taova@expd.vniief.ru
Serial Number: 
SubFile: 
X4Number: F1041003 
Reaction: 12C(a,a0)12C
Distribution: Energy
Composition: 
Masses:    4.000,   12.000,    4.000,   12.000
Zeds: 2,  6,  2,  6
Qvalue:        0.00,      0.00,      0.00,      0.00,      0.00
Theta:   136.06
Sigfactors: 1.00, 0.00 
Enfactors: 1000.00, 0.00, 0.00, 0.00
Units: mb
Data:
6.5996      0.0      34.5367      0.0
6.6991      0.0      34.0067      0.0
6.7986      0.0      34.7128      0.0
6.8949      0.0      39.6588      0.0
6.9399      0.0      45.3119      0.0
6.9752      0.0      49.9051      0.0
6.9977      0.0      51.1417      0.0
7.0073      0.0      55.9132      0.0
7.0233      0.0      49.9045      0.0
7.0394      0.0      42.6614      0.0
7.0554      0.0      28.5286      0.0
7.0779      0.0      14.9257      0.0
7.0971      0.0      5.5626       0.0
7.1067      0.0      2.7359       0.0
7.1164      0.0      0.9693       0.0
7.1645      0.0      0.4391       0.0
7.1870      0.0      1.3223       0.0
7.2095      0.0      2.0288       0.0
7.2544      0.0      3.6186       0.0
7.2929      0.0      4.6784       0.0
7.3957      0.0      7.3281       0.0
7.5016      0.0      9.0942       0.0
7.5979      0.0      10.3303      0.0
7.6140      0.0      11.0369      0.0
7.6332      0.0      11.7435      0.0
7.6525      0.0      12.0969      0.0
7.6782      0.0      13.3335      0.0
7.6975      0.0      14.3935      0.0
7.7167      0.0      15.8062      0.0
7.7263      0.0      16.6895      0.0
7.7392      0.0      17.5728      0.0
7.7488      0.0      18.4561      0.0
7.7585      0.0      19.5161      0.0
7.7841      0.0      21.4593      0.0
7.7970      0.0      23.5793      0.0
7.8259      0.0      27.1125      0.0
7.8484      0.0      30.2924      0.0
7.8548      0.0      31.3524      0.0
7.8773      0.0      34.8850      0.0
7.9029      0.0      39.1249      0.0
7.9190      0.0      36.8283      0.0
7.9286      0.0      35.0617      0.0
7.9415      0.0      33.2951      0.0
7.9479      0.0      29.7619      0.0
7.9607      0.0      24.6387      0.0
7.9735      0.0      20.7522      0.0
7.9832      0.0      17.7489      0.0
8.0056      0.0      11.7419      0.0
8.0185      0.0      9.6220       0.0
8.0377      0.0      7.8553       0.0
8.0506      0.0      8.2087       0.0
8.0891      0.0      7.8553       0.0
8.1051      0.0      9.6220       0.0
8.1116      0.0      11.3886      0.0
8.1212      0.0      14.0385      0.0
8.1308      0.0      19.6916      0.0
8.1437      0.0      21.6344      0.0
8.1437      0.0      23.7543      0.0
8.1533      0.0      22.8710      0.0
8.1565      0.0      21.4577      0.0
8.1629      0.0      16.3345      0.0
8.1694      0.0      12.8013      0.0
8.1822      0.0      10.3280      0.0
8.195       0.0      9.0914       0.0
8.2047      0.0      8.2081       0.0
8.301       0.0      7.1476       0.0
8.4101      0.0      6.7943       0.0
8.5032      0.0      6.6171       0.0
EndData:
