Comment:    Automatically converted from EXFOR on 2019-04-04,12:42:59
            by the IAEA-NDS EXFOR Web-Retrieval System
            program ver-2019-02-20 (V.Zerkin).
            X4Title: "On the investigation of alpha-particle resonance
             elastic scattering from the 16O nucleus"
            X4Author: R.A.Jarjis
            EXFOR: F0454002    Created: 2003-08-27  Updated: 2011-11-23
            X4Reaction:8-O-16(A,EL)8-O-16,,DA; X4Points:344
            ENSDF:LevelEnergy=0.00
            Systematic uncertainty: ErrSys=1.6%  Min=0.19%  Max=9.56%
            AME2016: M1=4.002603254 M2=15.994914619 M3=4.002603254 M4=15.994914619

Version:      R33
X4Number:     F0454002 20111123
Source:       R.A.Jarjis(1985), Jour. Nucl. Instrum. Methods in Physics Res., Sect.B, Vol.12, p.331
Reaction:     16O(a,a0)16O
Distribution: Energy
Sigfactors:   1.00, 0.016
Enfactors:    1.00, 0.00, 0.00, 0.00
Units:        mb
Composition:
Masses:       4.0, 16.0, 4.0, 16.0
Zeds:         2, 8, 2, 8
Qvalue:       0.0, 0.00, 0.00, 0.00, 0.00
Theta:        165
Data:
 2011.70,     2.00,   73.146,    2.436
 2028.30,     2.00,   71.237,   2.3615
 2059.20,     2.00,   68.375,   2.2492
 2066.70,     2.00,   66.423,   2.1721
 2070.10,     2.00,   62.486,    2.015
 2076.90,     2.00,   62.502,   2.0157
 2086.70,     2.00,   67.494,   2.2145
 2096.20,     2.00,   66.546,    2.177
 2111.40,     2.00,   56.699,   1.7795
 2124.60,     2.00,   71.593,   2.3754
 2135.30,     2.00,   69.658,   2.2997
 2147.20,     2.00,   69.708,   2.3016
 2161.60,     2.00,   66.783,   2.1864
 2169.10,     2.00,    68.79,   2.2656
 2187.20,     2.00,   61.933,   1.9928
 2194.50,     2.00,   54.047,   1.6691
 2209.00,     2.00,   61.029,   1.9562
 2224.10,     2.00,   61.082,   1.9585
 2252.70,     2.00,   63.174,   2.0427
 2260.10,     2.00,   56.267,   1.7615
 2273.80,     2.00,   55.328,   1.7226
 2286.20,     2.00,   61.323,   1.9681
 2310.90,     2.00,   59.433,   1.8915
 2337.10,     2.00,   57.554,   1.8146
 2356.30,     2.00,   55.645,   1.7358
 2374.10,     2.00,   44.826,   1.2665
 2398.00,     2.00,   40.953,   1.0833
 2442.50,     2.00,   40.138,   1.0431
 2455.40,     2.00,   36.213,   0.8364
 2462.60,     2.00,   35.256,   0.7816
 2468.20,     2.00,   34.284,   0.7234
 2474.70,     2.00,   31.333,   0.5219
 2479.00,     2.00,   29.375,    0.344
 2486.30,     2.00,   22.477,     0.00
 2490.10,     2.00,   20.502,     0.00
 2497.80,     2.00,   20.538,     0.00
 2498.60,     2.00,   33.414,   0.6686
 2505.30,     2.00,   51.263,   1.5511
 2512.80,     2.00,   56.253,    1.761
 2517.20,     2.00,   68.136,   2.2398
 2521.90,     2.00,   71.127,   2.3573
 2527.20,     2.00,   75.104,    2.512
 2531.10,     2.00,   68.183,   2.2417
 2536.80,     2.00,    61.27,    1.966
 2539.00,     2.00,   58.314,   1.8458
 2544.30,     2.00,   55.366,   1.7242
 2548.20,     2.00,   63.304,   2.0478
 2553.50,     2.00,   58.375,   1.8483
 2560.10,     2.00,   61.366,   1.9699
 2565.40,     2.00,   60.397,   1.9307
 2570.70,     2.00,   59.428,   1.8913
 2576.30,     2.00,   61.424,   1.9723
 2585.30,     2.00,   56.516,   1.7719
 2589.20,     2.00,   50.614,   1.5232
 2600.10,     2.00,   54.595,    1.692
 2607.00,     2.00,   54.614,   1.6928
 2612.80,     2.00,   50.673,   1.5257
 2616.20,     2.00,   47.725,   1.3971
 2621.40,     2.00,   52.686,   1.6117
 2630.90,     2.00,   53.714,   1.6551
 2636.30,     2.00,   56.707,   1.7798
 2642.10,     2.00,   53.754,   1.6567
 2645.80,     2.00,   44.853,   1.2678
 2653.30,     2.00,   51.812,   1.5745
 2661.20,     2.00,   47.885,   1.4042
 2670.70,     2.00,   43.967,   1.2269
 2675.40,     2.00,   51.907,   1.5786
 2680.20,     2.00,   54.894,   1.7045
 2686.10,     2.00,   54.913,   1.7053
 2691.00,     2.00,   48.996,    1.453
 2696.30,     2.00,   50.007,    1.497
 2705.20,     2.00,   55.974,   1.7495
 2710.50,     2.00,   48.076,   1.4126
 2714.10,     2.00,   54.034,   1.6685
 2720.80,     2.00,   52.075,   1.5857
 2728.90,     2.00,   51.114,   1.5447
 2735.30,     2.00,   53.128,   1.6303
 2739.10,     2.00,   46.204,   1.3291
 2747.00,     2.00,   50.196,   1.5052
 2753.40,     2.00,   55.164,   1.7158
 2758.90,     2.00,   51.228,   1.5495
 2764.30,     2.00,   52.234,   1.5925
 2769.60,     2.00,   48.298,   1.4223
 2774.30,     2.00,   61.185,   1.9626
 2782.10,     2.00,   44.387,   1.2463
 2787.80,     2.00,   51.343,   1.5544
 2790.40,     2.00,   54.328,   1.6808
 2804.00,     2.00,    55.41,    1.726
 2811.90,     2.00,   55.433,    1.727
 2816.80,     2.00,   57.437,   1.8098
 2823.70,     2.00,   58.453,   1.8515
 2830.60,     2.00,   62.453,   2.0137
 2834.60,     2.00,   57.489,    1.812
 2842.50,     2.00,   58.507,   1.8538
 2846.50,     2.00,   52.549,   1.6059
 2854.40,     2.00,   56.552,   1.7734
 2862.30,     2.00,    55.58,   1.7331
 2866.20,     2.00,   55.592,   1.7336
 2872.10,     2.00,   57.599,   1.8165
 2880.00,     2.00,   58.617,   1.8582
 2886.00,     2.00,   57.639,   1.8181
 2890.90,     2.00,   58.649,   1.8596
 2898.80,     2.00,   54.692,    1.696
 2905.70,     2.00,   53.717,   1.6552
 2910.70,     2.00,   55.722,    1.739
 2917.50,     2.00,   71.662,   2.3781
 2923.50,     2.00,   53.769,   1.6574
 2930.40,     2.00,   61.749,   1.9854
 2935.30,     2.00,   60.769,   1.9458
 2941.20,     2.00,   65.761,   2.1458
 2951.10,     2.00,   62.805,   2.0278
 2961.00,     2.00,   62.834,    2.029
 2966.00,     2.00,   56.878,   1.7868
 2970.90,     2.00,   55.898,   1.7462
 2978.80,     2.00,   63.881,   2.0709
 2985.70,     2.00,   67.881,   2.2297
 2997.50,     2.00,    82.84,   2.8096
 3003.40,     2.00,   87.832,   2.9997
 3008.30,     2.00,   107.75,   3.7479
 3021.10,     2.00,   119.72,   4.1923
 3023.90,     2.00,   163.51,   5.8008
 3036.60,     2.00,   216.28,   7.7216
 3038.30,     2.00,   329.72,  11.8277
 3039.50,     2.00,   246.14,   8.8044
 3042.90,     2.00,   432.22,  15.5278
 3044.60,     2.00,   514.81,  18.5062
 3046.70,     2.00,   479.99,  17.2507
 3050.00,     2.00,   373.53,  13.4098
 3053.00,     2.00,   348.67,  12.5122
 3056.40,     2.00,   200.42,   7.1455
 3061.70,     2.00,   91.983,   3.1568
 3067.70,     2.00,   37.276,   0.8948
 3076.70,     2.00,   19.392,     0.00
 3084.60,     2.00,    10.46,     0.00
 3090.50,     2.00,   22.417,     0.00
 3101.30,     2.00,   28.419,   0.2162
 3106.30,     2.00,   27.439,     0.00
 3110.20,     2.00,    31.43,   0.5294
 3121.10,     2.00,   37.432,   0.9033
 3135.90,     2.00,   33.495,   0.6738
 3145.80,     2.00,   31.534,   0.5373
 3153.70,     2.00,   32.552,    0.611
 3159.60,     2.00,   32.569,   0.6122
 3164.50,     2.00,   32.584,   0.6131
 3169.50,     2.00,   31.603,   0.5426
 3176.40,     2.00,   33.613,   0.6814
 3185.30,     2.00,   26.674,     0.00
 3190.20,     2.00,   27.684,     0.00
 3196.20,     2.00,   31.681,   0.5484
 3202.10,     2.00,   29.708,   0.3792
 3208.00,     2.00,   35.696,   0.8071
 3213.90,     2.00,   32.728,    0.623
 3220.80,     2.00,   33.743,   0.6896
 3224.80,     2.00,    26.79,     0.00
 3231.70,     2.00,   31.785,   0.5562
 3239.60,     2.00,   33.798,   0.6931
 3244.60,     2.00,   28.838,    0.279
 3247.50,     2.00,   33.821,   0.6947
 3256.40,     2.00,   37.827,   0.9244
 3260.30,     2.00,   34.854,   0.7578
 3266.30,     2.00,   36.861,   0.8723
 3271.20,     2.00,   40.855,   1.0785
 3276.10,     2.00,   45.845,    1.313
 3281.10,     2.00,   41.879,   1.1282
 3287.00,     2.00,   41.897,   1.1291
 3301.80,     2.00,   44.925,   1.2711
 3309.70,     2.00,   42.958,   1.1797
 3314.60,     2.00,   46.952,   1.3628
 3319.60,     2.00,   47.962,   1.4075
 3327.50,     2.00,   49.975,   1.4956
 3334.40,     2.00,   49.995,   1.4964
 3339.30,     2.00,   52.994,   1.6247
 3346.20,     2.00,    54.01,   1.6675
 3353.10,     2.00,    65.97,   2.1541
 3358.00,     2.00,   81.904,   2.7737
 3367.70,     2.00,   124.72,   4.3771
 3372.60,     2.00,   140.65,   4.9637
 3381.70,     2.00,   90.928,   3.1169
 3387.70,     2.00,   55.126,   1.7141
 3389.70,     2.00,   34.237,   0.7205
 3394.70,     2.00,   28.281,   0.1911
 3404.60,     2.00,    16.37,     0.00
 3409.50,     2.00,    19.37,     0.00
 3416.40,     2.00,   18.395,     0.00
 3422.30,     2.00,   24.382,     0.00
 3436.20,     2.00,   16.463,     0.00
 3440.10,     2.00,   23.439,     0.00
 3447.00,     2.00,   26.444,     0.00
 3459.90,     2.00,   25.487,     0.00
 3474.70,     2.00,   26.525,     0.00
 3479.60,     2.00,   27.535,     0.00
 3502.30,     2.00,   27.601,     0.00
 3515.20,     2.00,   29.628,    0.371
 3525.00,     2.00,   27.667,     0.00
 3534.90,     2.00,   32.671,   0.6192
 3554.70,     2.00,   30.739,   0.4739
 3569.50,     2.00,   31.777,   0.5556
EndData:
