Comment:    Automatically converted from EXFOR at 2020-09-09,08:27:02
            by the IAEA-NDS EXFOR Web-Retrieval System,
            program X4toR33 ver-2020-05-11 (V.Zerkin).
            X4Title: "Spectroscopy of semiconductor detector by means of
                      16O+d, 18O+p nuclear reactions"
            X4Author: G.Amsel
            EXFOR: D0086002    Created: 2004-02-19  Updated: 2005-09-26
            X4Reaction:8-O-16(D,A)7-N-14,,DA; X4Points:385
            Converted from C.M. to Lab.: Sigma (Theta: not converted) 
            SigmaLab=SigmaCM/{1.0033647, 1.0065942}
            ENSDF:LevelEnergy=0.00
            AME2016: M1=2.014101778 M2=15.994914619 M3=4.002603254 M4=14.003074004

Version:      R33
X4Number:     D0086002 20050926
Source:       G.Amsel(1964), Annales de Physique (Paris), Vol.9, p.297
Reaction:     16O(d,a)14N
Distribution: Energy
Sigfactors:   1.00, 0.00
Enfactors:    1.00, 0.00, 0.00, 0.00
Units:        mb
Composition:
Masses:       2.0, 16.0, 4.0, 14.0
Zeds:         1, 8, 2, 7
Qvalue:       3110.39, 0.00, 0.00, 0.00, 0.00
Theta:        90
Data:
   807.37,      0.00,    0.4855,      0.00
   815.54,      0.00,     0.511,      0.00
   824.33,      0.00,    0.5632,      0.00
   834.38,      0.00,    0.6151,      0.00
   844.42,      0.00,    0.6404,      0.00
   854.47,      0.00,    0.6657,      0.00
   863.91,      0.00,    0.7844,      0.00
   873.28,      0.00,    0.6632,      0.00
   882.09,      0.00,    0.7553,      0.00
   891.52,      0.00,    0.8473,      0.00
   901.55,      0.00,    0.8326,      0.00
   911.60,      0.00,    0.8712,      0.00
   921.04,      0.00,    0.9766,      0.00
   931.74,      0.00,    1.1217,      0.00
   941.18,      0.00,    1.2137,      0.00
   951.26,      0.00,    1.3855,      0.00
   960.74,      0.00,     1.624,      0.00
   972.12,      0.00,    1.9422,      0.00
   982.86,      0.00,    2.2071,      0.00
   993.01,      0.00,    2.5921,      0.00
  1003.80,      0.00,      3.19,      0.00
  1014.20,      0.00,    4.2808,      0.00
  1026.30,      0.00,    4.9185,      0.00
  1037.10,      0.00,    5.3564,      0.00
  1046.50,      0.00,    5.3417,      0.00
  1057.20,      0.00,    5.3268,      0.00
  1067.10,      0.00,    5.0723,      0.00
  1077.10,      0.00,    4.7911,      0.00
  1087.00,      0.00,    4.5233,      0.00
  1097.00,      0.00,    4.2289,      0.00
  1106.90,      0.00,     4.001,      0.00
  1116.90,      0.00,    3.5867,      0.00
  1126.20,      0.00,    3.5188,      0.00
  1134.30,      0.00,    3.3578,      0.00
  1144.30,      0.00,    3.1966,      0.00
  1155.00,      0.00,    3.0487,      0.00
  1164.30,      0.00,    2.9675,      0.00
  1174.30,      0.00,    2.8329,      0.00
  1185.60,      0.00,    2.8579,      0.00
  1194.40,      0.00,    2.7502,      0.00
  1205.00,      0.00,    2.6821,      0.00
  1215.10,      0.00,    2.6674,      0.00
  1224.50,      0.00,    2.6527,      0.00
  1235.10,      0.00,    2.6646,      0.00
  1245.70,      0.00,    2.5566,      0.00
  1256.40,      0.00,    2.5817,      0.00
  1266.50,      0.00,    2.5804,      0.00
  1275.90,      0.00,     2.579,      0.00
  1282.10,      0.00,    2.5915,      0.00
  1286.50,      0.00,    2.5642,      0.00
  1291.60,      0.00,      2.63,      0.00
  1297.80,      0.00,    2.4162,      0.00
  1302.10,      0.00,    2.3091,      0.00
  1309.00,      0.00,    2.2416,      0.00
  1313.40,      0.00,    2.2011,      0.00
  1318.40,      0.00,    2.2005,      0.00
  1323.40,      0.00,    2.2131,      0.00
  1329.10,      0.00,    2.2389,      0.00
  1339.10,      0.00,    2.1842,      0.00
  1351.00,      0.00,    2.1028,      0.00
  1362.30,      0.00,    2.1012,      0.00
  1372.30,      0.00,    1.9801,      0.00
  1382.30,      0.00,    1.9255,      0.00
  1393.60,      0.00,    1.8574,      0.00
  1403.00,      0.00,    1.8428,      0.00
  1415.60,      0.00,     2.014,      0.00
  1428.10,      0.00,     2.132,      0.00
  1438.80,      0.00,    2.2636,      0.00
  1449.00,      0.00,    2.5682,      0.00
  1460.40,      0.00,    3.0456,      0.00
  1471.30,      0.00,    3.7359,      0.00
  1475.80,      0.00,    4.2274,      0.00
  1481.50,      0.00,    4.5326,      0.00
  1487.30,      0.00,    4.8777,      0.00
  1492.30,      0.00,    4.8104,      0.00
  1496.60,      0.00,    4.5437,      0.00
  1501.50,      0.00,    4.3568,      0.00
  1512.00,      0.00,    3.5971,      0.00
  1521.30,      0.00,    3.1967,      0.00
  1530.60,      0.00,    2.9826,      0.00
  1539.30,      0.00,    2.6887,      0.00
  1550.00,      0.00,    2.6739,      0.00
  1559.40,      0.00,    2.6592,      0.00
  1569.40,      0.00,    2.6978,      0.00
  1579.50,      0.00,    2.8826,      0.00
  1590.80,      0.00,    2.9608,      0.00
  1602.20,      0.00,    3.1321,      0.00
  1611.00,      0.00,    3.2107,      0.00
  1622.80,      0.00,    3.0494,      0.00
  1629.10,      0.00,    2.9954,      0.00
  1635.40,      0.00,    3.0211,      0.00
  1646.10,      0.00,     3.126,      0.00
  1657.40,      0.00,    3.3239,      0.00
  1669.40,      0.00,    3.7211,      0.00
  1679.60,      0.00,     4.318,      0.00
  1689.30,      0.00,    5.0213,      0.00
  1701.40,      0.00,    5.9105,      0.00
  1711.90,      0.00,    7.1987,      0.00
  1722.80,      0.00,    8.2873,      0.00
  1732.70,      0.00,    9.6685,      0.00
  1744.90,      0.00,   10.7704,      0.00
  1753.30,      0.00,   11.6201,      0.00
  1763.50,      0.00,   12.2033,      0.00
  1772.40,      0.00,   12.4943,      0.00
  1784.20,      0.00,   12.2266,      0.00
  1793.00,      0.00,    12.278,      0.00
  1800.40,      0.00,   11.8644,      0.00
  1810.40,      0.00,   11.6772,      0.00
  1822.20,      0.00,   11.4623,      0.00
  1832.20,      0.00,   11.3676,      0.00
  1839.80,      0.00,    11.593,      0.00
  1850.60,      0.00,   11.8829,      0.00
  1860.20,      0.00,    12.467,      0.00
  1868.30,      0.00,   12.4519,      0.00
  1877.10,      0.00,   12.5441,      0.00
  1885.80,      0.00,   12.2765,      0.00
  1894.90,      0.00,   11.1057,      0.00
  1905.40,      0.00,   10.5191,      0.00
  1913.50,      0.00,   10.2656,      0.00
  1921.00,      0.00,   10.2247,      0.00
  1929.10,      0.00,   10.1301,      0.00
  1936.70,      0.00,   10.2621,      0.00
  1946.70,      0.00,   10.2738,      0.00
  1955.50,      0.00,   10.2587,      0.00
  1966.80,      0.00,   10.3369,      0.00
  1987.50,      0.00,   10.5461,      0.00
  1996.90,      0.00,   10.4913,      0.00
  2008.20,      0.00,   10.4364,      0.00
  2017.00,      0.00,   10.4223,      0.00
EndData:
