Comment:    Automatically converted from EXFOR at 2020-09-09,08:28:10
            by the IAEA-NDS EXFOR Web-Retrieval System,
            program X4toR33 ver-2020-05-11 (V.Zerkin).
            X4Title: "Spectroscopy of semiconductor detector by means of
                      16O+d, 18O+p nuclear reactions"
            X4Author: G.Amsel
            EXFOR: D0086002    Created: 2004-02-19  Updated: 2005-09-26
            X4Reaction:8-O-16(D,A)7-N-14,,DA; X4Points:385
            Converted from C.M. to Lab.: Sigma (Theta: not converted) 
            SigmaLab=SigmaCM/{1.1811413, 1.2644694}
            ENSDF:LevelEnergy=0.00
            AME2016: M1=2.014101778 M2=15.994914619 M3=4.002603254 M4=14.003074004

Version:      R33
X4Number:     D0086002 20050926
Source:       G.Amsel(1964), Jour. Annales de Physique (Paris), Vol.9, p.297
Reaction:     16O(d,a)14N
Distribution: Energy
Sigfactors:   1.00, 0.00
Enfactors:    1.00, 0.00, 0.00, 0.00
Units:        mb
Composition:
Masses:       2.0, 16.0, 4.0, 14.0
Zeds:         1, 8, 2, 7
Qvalue:       3110.39, 0.00, 0.00, 0.00, 0.00
Theta:        165
Data:
   825.35,      0.00,    2.2865,      0.00
   828.61,      0.00,    2.7465,      0.00
   843.92,      0.00,    3.0609,      0.00
   852.25,      0.00,    3.4576,      0.00
   859.96,      0.00,    3.9942,      0.00
   867.67,      0.00,    4.4501,      0.00
   881.06,      0.00,    4.6825,      0.00
   892.57,      0.00,    5.0952,      0.00
   901.54,      0.00,    5.4887,      0.00
   909.86,      0.00,    5.8223,      0.00
   920.08,      0.00,    6.1345,      0.00
   929.06,      0.00,    6.5861,      0.00
   942.44,      0.00,    6.7758,      0.00
   954.56,      0.00,    7.0256,      0.00
   968.61,      0.00,    7.3926,      0.00
   983.28,      0.00,    7.6396,      0.00
   996.69,      0.00,    8.0057,      0.00
  1005.70,      0.00,    8.8693,      0.00
  1015.60,      0.00,   10.8763,      0.00
  1026.10,      0.00,   13.0383,      0.00
  1034.50,      0.00,   13.7201,      0.00
  1041.00,      0.00,   14.1467,      0.00
  1049.80,      0.00,   13.6628,      0.00
  1060.50,      0.00,   13.2967,      0.00
  1067.40,      0.00,   12.5606,      0.00
  1076.20,      0.00,   11.9218,      0.00
  1082.50,      0.00,   11.3845,      0.00
  1091.30,      0.00,   10.8458,      0.00
  1101.30,      0.00,   10.2672,      0.00
  1106.30,      0.00,    9.7523,      0.00
  1114.50,      0.00,    9.3336,      0.00
  1121.40,      0.00,    8.8375,      0.00
  1130.90,      0.00,    8.3404,      0.00
  1143.60,      0.00,    7.9789,      0.00
  1158.10,      0.00,     7.656,      0.00
  1168.90,      0.00,     7.336,      0.00
  1179.60,      0.00,    6.8408,      0.00
  1191.00,      0.00,     6.424,      0.00
  1199.80,      0.00,    6.0872,      0.00
  1213.10,      0.00,     5.651,      0.00
  1230.20,      0.00,    5.4475,      0.00
  1249.30,      0.00,     5.438,      0.00
  1262.00,      0.00,    5.4512,      0.00
  1272.80,      0.00,    5.4459,      0.00
  1283.60,      0.00,    5.3631,      0.00
  1295.60,      0.00,    5.0469,      0.00
  1302.60,      0.00,    4.6946,      0.00
  1303.80,      0.00,    4.1317,      0.00
  1308.80,      0.00,    3.7226,      0.00
  1318.40,      0.00,    4.1065,      0.00
  1329.80,      0.00,    4.0633,      0.00
  1337.40,      0.00,    3.7507,      0.00
  1345.60,      0.00,    3.2833,      0.00
  1352.50,      0.00,    2.8362,      0.00
  1359.40,      0.00,    2.4667,      0.00
  1365.70,      0.00,     2.175,      0.00
  1372.70,      0.00,     1.864,      0.00
  1379.00,      0.00,    1.5149,      0.00
  1386.50,      0.00,    1.2235,      0.00
  1396.00,      0.00,     0.932,      0.00
  1406.10,      0.00,    0.6793,      0.00
  1417.60,      0.00,    0.5229,      0.00
  1429.00,      0.00,    0.4823,      0.00
  1439.20,      0.00,    0.6344,      0.00
  1448.10,      0.00,    0.8827,      0.00
  1452.00,      0.00,    1.1896,      0.00
  1455.20,      0.00,    1.4773,      0.00
  1461.20,      0.00,    2.5715,      0.00
  1472.90,      0.00,    4.0663,      0.00
  1482.00,      0.00,    5.3685,      0.00
  1495.50,      0.00,    6.5905,      0.00
  1505.20,      0.00,    7.0459,      0.00
  1513.40,      0.00,    7.1757,      0.00
  1520.50,      0.00,    7.2678,      0.00
  1529.40,      0.00,    7.2631,      0.00
  1536.30,      0.00,    7.1446,      0.00
  1543.90,      0.00,    7.0066,      0.00
  1549.60,      0.00,    6.7742,      0.00
  1560.90,      0.00,    5.7933,      0.00
  1572.80,      0.00,    4.6223,      0.00
  1592.40,      0.00,    4.0992,      0.00
  1597.20,      0.00,    6.3116,      0.00
  1599.60,      0.00,    9.1733,      0.00
  1603.50,      0.00,    9.6862,      0.00
  1608.50,      0.00,    9.1105,      0.00
  1612.20,      0.00,    8.6121,      0.00
  1627.50,      0.00,    8.6991,      0.00
  1637.80,      0.00,    9.4739,      0.00
  1653.80,      0.00,   10.2067,      0.00
  1659.70,      0.00,   11.2497,      0.00
  1665.00,      0.00,   12.5021,      0.00
  1674.20,      0.00,   14.0732,      0.00
  1681.00,      0.00,    16.216,      0.00
  1699.10,      0.00,   18.0801,      0.00
  1706.40,      0.00,   19.7059,      0.00
  1724.90,      0.00,   20.3314,      0.00
  1738.20,      0.00,   19.8045,      0.00
  1748.90,      0.00,   19.2629,      0.00
  1753.10,      0.00,   17.9892,      0.00
  1761.80,      0.00,   16.5031,      0.00
  1767.30,      0.00,     15.40,      0.00
  1773.40,      0.00,   14.2779,      0.00
  1780.90,      0.00,   13.0989,      0.00
  1787.60,      0.00,   11.7886,      0.00
  1800.20,      0.00,   10.7397,      0.00
  1807.60,      0.00,     9.904,      0.00
  1812.60,      0.00,     9.164,      0.00
  1823.90,      0.00,     8.119,      0.00
  1832.60,      0.00,     7.189,      0.00
  1845.70,      0.00,    6.0318,      0.00
  1873.00,      0.00,    5.5117,      0.00
  1880.70,      0.00,    6.1682,      0.00
  1887.90,      0.00,    7.0506,      0.00
  1905.10,      0.00,    7.5888,      0.00
  1921.00,      0.00,    7.3556,      0.00
  1936.90,      0.00,    7.1604,      0.00
  1955.30,      0.00,    7.3964,      0.00
  1971.20,      0.00,    7.1264,      0.00
  1982.00,      0.00,    6.9528,      0.00
  1989.50,      0.00,    6.6494,      0.00
  1995.20,      0.00,    6.4032,      0.00
  2000.30,      0.00,    6.1385,      0.00
  2005.90,      0.00,    5.5177,      0.00
  2008.50,      0.00,    5.8729,      0.00
  2013.90,      0.00,    4.4277,      0.00
  2014.70,      0.00,    5.2708,      0.00
  2017.20,      0.00,    4.9326,      0.00
  2021.60,      0.00,    4.6688,      0.00
EndData
