Comment:    Automatically converted from EXFOR on 2019-04-03,17:01:40
            by the IAEA-NDS EXFOR Web-Retrieval System
            program ver-2019-02-20 (V.Zerkin).
            X4Title: "Spectroscopy of semiconductor detector by means of
             16O+d, 18O+p nuclear reactions"
            X4Author: G.Amsel
            EXFOR: D0086005    Created: 2004-02-19  Updated: 2005-09-26
            X4Reaction:8-O-16(D,P)8-O-17,PAR,DA; X4Points:384
            ENSDF:LevelEnergy=0.00
            Systematic uncertainty: ErrSys=1.03%  Min=0.15%  Max=4.86%
            AME2016: M1=2.014101778 M2=15.994914619 M3=1.007825032 M4=16.999131756

Version:      R33
X4Number:     D0086005 20050926
Source:       G.Amsel(1964), Annales de Physique (Paris), Vol.9, p.297
Reaction:     16O(d,p0)17O
Distribution: Energy
Sigfactors:   1.00, 0.0103
Enfactors:    1.00, 0.00, 0.00, 0.00
Units:        mb
Composition:
Masses:       2.0, 16.0, 1.0, 17.0
Zeds:         1, 8, 1, 8
Qvalue:       1918.51, 0.00, 0.00, 0.00, 0.00
Theta:        87
Data:
  939.91,    20.00,   2.1628,     0.00
  958.51,    20.00,   2.2102,     0.00
  977.12,    20.00,   2.5196,     0.00
  995.72,    20.00,   2.5432,     0.00
 1014.30,    20.00,   2.2097,     0.00
 1033.70,    20.00,   2.0666,     0.00
 1051.50,    20.00,   2.0664,     0.00
 1068.50,    20.00,   1.7566,     0.00
 1087.90,    20.00,    2.066,     0.00
 1107.30,    20.00,   1.3276,     0.00
 1126.70,    20.00,   1.5417,     0.00
 1134.00,    20.00,    1.232,     0.00
 1146.20,    20.00,   1.2557,     0.00
 1158.30,    20.00,   1.3032,     0.00
 1168.00,    20.00,   1.2317,     0.00
 1176.90,    20.00,   1.3268,     0.00
 1185.00,    20.00,   1.3029,     0.00
 1196.30,    20.00,   1.5409,     0.00
 1206.00,    20.00,   1.6361,     0.00
 1217.30,    20.00,   1.6121,     0.00
 1225.40,    20.00,   1.4692,     0.00
 1232.70,    20.00,   1.4691,     0.00
 1240.80,    20.00,   1.5405,     0.00
 1250.50,    20.00,   1.5642,     0.00
 1256.20,    20.00,   1.7784,     0.00
 1266.70,    20.00,   1.7545,     0.00
 1271.50,    20.00,   2.0402,     0.00
 1281.20,    20.00,   2.2068,     0.00
 1289.30,    20.00,   2.5163,     0.00
 1299.90,    20.00,   2.7067,     0.00
 1309.60,    20.00,   3.1114,     0.00
 1317.70,    20.00,   3.4447,     0.00
 1324.90,    20.00,   3.7304,     0.00
 1329.80,    20.00,   4.0161,     0.00
 1336.30,    20.00,   4.3018,     0.00
 1342.70,    20.00,   4.8494,     0.00
 1353.30,    20.00,   5.4685,     0.00
 1362.20,    20.00,   5.9208,     0.00
 1371.10,    20.00,    6.397,     0.00
 1380.80,    20.00,    6.635,     0.00
 1389.70,    20.00,   6.8254,     0.00
 1399.40,    20.00,    6.873,     0.00
 1408.30,    20.00,   6.7776,     0.00
 1416.40,    20.00,   6.5156,     0.00
 1424.50,    20.00,   6.2535,     0.00
 1434.20,    20.00,   6.0629,     0.00
 1443.90,    20.00,   5.9676,     0.00
 1452.80,    20.00,   5.9198,     0.00
 1459.20,    20.00,   5.9198,     0.00
 1466.50,    20.00,   5.8959,     0.00
 1474.60,    20.00,    5.872,     0.00
 1482.70,    20.00,   5.8481,     0.00
 1490.00,    20.00,   5.9909,     0.00
 1498.10,    20.00,   6.1575,     0.00
 1505.30,    20.00,   6.2765,     0.00
 1513.40,    20.00,   6.2288,     0.00
 1522.30,    20.00,   6.0382,     0.00
 1530.40,    20.00,   5.8952,     0.00
 1537.70,    20.00,   5.7999,     0.00
 1546.60,    20.00,   5.7998,     0.00
 1554.70,    20.00,   5.7997,     0.00
 1561.20,    20.00,   6.0854,     0.00
 1566.80,    20.00,   6.3711,     0.00
 1576.50,    20.00,   6.7758,     0.00
 1586.20,    20.00,   6.7995,     0.00
 1592.70,    20.00,   6.4661,     0.00
 1600.00,    20.00,   6.0373,     0.00
 1608.90,    20.00,    5.942,     0.00
 1616.20,    20.00,   5.9419,     0.00
 1625.00,    20.00,   6.1085,     0.00
 1631.50,    20.00,   6.6323,     0.00
 1640.40,    20.00,   6.7751,     0.00
 1646.90,    20.00,   7.2037,     0.00
 1655.00,    20.00,   8.0133,     0.00
 1662.30,    20.00,    8.418,     0.00
 1670.40,    20.00,   7.9655,     0.00
 1677.60,    20.00,   6.7985,     0.00
 1682.50,    20.00,   5.7745,     0.00
 1692.20,    20.00,   4.8457,     0.00
 1698.60,    20.00,   4.6075,     0.00
 1706.70,    20.00,   4.3216,     0.00
 1714.00,    20.00,   4.4644,     0.00
 1719.70,    20.00,   4.6549,     0.00
 1727.80,    20.00,   4.5357,     0.00
 1735.00,    20.00,   4.7738,     0.00
 1743.90,    20.00,   4.8928,     0.00
 1752.80,    20.00,    4.845,     0.00
 1760.90,    20.00,    4.845,     0.00
 1766.60,    20.00,   4.9878,     0.00
 1775.50,    20.00,     4.94,     0.00
 1784.40,    20.00,   4.8209,     0.00
 1792.50,    20.00,   4.8922,     0.00
 1798.90,    20.00,   4.4397,     0.00
 1807.00,    20.00,   4.6063,     0.00
 1813.50,    20.00,   4.4634,     0.00
 1824.80,    20.00,   4.4633,     0.00
 1834.50,    20.00,   4.3917,     0.00
 1844.20,    20.00,   4.4869,     0.00
 1854.70,    20.00,   4.4391,     0.00
 1863.60,    20.00,   4.6295,     0.00
 1872.50,    20.00,   5.3438,     0.00
 1881.40,    20.00,   5.6057,     0.00
 1889.50,    20.00,   6.3676,     0.00
 1902.50,    20.00,   7.1057,     0.00
 1910.60,    20.00,   6.6294,     0.00
 1918.70,    20.00,   5.5339,     0.00
 1928.30,    20.00,   4.6765,     0.00
 1938.10,    20.00,   4.2239,     0.00
 1950.20,    20.00,   4.2714,     0.00
 1956.70,    20.00,   4.0808,     0.00
 1967.20,    20.00,   3.9378,     0.00
 1976.10,    20.00,   3.8187,     0.00
EndData:
