Comment:    Automatically converted from EXFOR on 2020-04-08,00:37:49
            by the IAEA-NDS EXFOR Web-Retrieval System
            program ver-2019-12-10 (V.Zerkin).
            X4Title: "A Study of 15N by Means of the 11B(alpha,alpha)11B
                      Reaction"
            X4Author: W.R.Ott, H.R.Weller
            EXFOR: C0754003    Created: 2000-12-01  Updated: 2010-09-18
            X4Reaction:5-B-11(A,EL)5-B-11,,DA; X4Points:191
            Converted from C.M. to Lab.: Sigma, Theta
            SigmaLab=SigmaCM/1.9238656
            ThetaLab=135.1 ThetaCM:150.0
            ENSDF:LevelEnergy=0.00
            Systematic uncertainty: ErrSys=30.0%
            AME2016: M1=4.002603254 M2=11.009305166 M3=4.002603254 M4=11.009305166

Version:      R33
X4Number:     C0754003 20100918
Source:       W.R.Ott+(1972), Jour. Nuclear Physics, Section A, Vol.198, p.505
Reaction:     11B(a,a0)11B
Distribution: Energy
Sigfactors:   1.00, 0.30
Enfactors:    1.00, 0.00, 0.00, 0.00
Units:        mb
Composition:
Masses:       4.0, 11.0, 4.0, 11.0
Zeds:         2, 5, 2, 5
Qvalue:       0.0, 0.00, 0.00, 0.00, 0.00
Theta:        135.1
Data:
  4000.00,     25.00,   11.0091,      0.00
  4020.00,     25.00,    11.191,      0.00
  4040.00,     25.00,   11.5549,      0.00
  4060.00,     25.00,   11.0195,      0.00
  4080.00,     25.00,    11.295,      0.00
  4100.00,     25.00,   11.5653,      0.00
  4120.00,     25.00,   12.1058,      0.00
  4140.00,     25.00,   14.3513,      0.00
  4160.00,     25.00,   18.1146,      0.00
  4180.00,     25.00,   18.3901,      0.00
  4200.00,     25.00,   19.6479,      0.00
  4220.00,     25.00,   20.7239,      0.00
  4240.00,     25.00,   20.5472,      0.00
  4260.00,     25.00,   21.1813,      0.00
  4280.00,     25.00,    20.017,      0.00
  4300.00,     25.00,   21.4568,      0.00
  4320.00,     25.00,   21.5504,      0.00
  4340.00,     25.00,   22.8966,      0.00
  4360.00,     25.00,   23.7075,      0.00
  4380.00,     25.00,   25.5891,      0.00
  4400.00,     25.00,   26.0413,      0.00
  4420.00,     25.00,   26.6703,      0.00
  4440.00,     25.00,   27.0341,      0.00
  4460.00,     25.00,   28.2036,      0.00
  4480.00,     25.00,   25.3396,      0.00
  4500.00,     25.00,   26.6859,      0.00
  4520.00,     25.00,   27.1381,      0.00
  4540.00,     25.00,   27.8606,      0.00
  4560.00,     25.00,   28.0425,      0.00
  4580.00,     25.00,    29.659,      0.00
  4600.00,     25.00,    29.841,      0.00
  4620.00,     25.00,   29.8462,      0.00
  4640.00,     25.00,   30.3867,      0.00
  4660.00,     25.00,   26.9873,      0.00
  4680.00,     25.00,   25.1109,      0.00
  4700.00,     25.00,   24.3052,      0.00
  4720.00,     25.00,   23.5931,      0.00
  4740.00,     25.00,   19.6583,      0.00
  4760.00,     25.00,   17.5116,      0.00
  4780.00,     25.00,   16.7995,      0.00
  4800.00,     25.00,   14.3825,      0.00
  4820.00,     25.00,   12.9531,      0.00
  4840.00,     25.00,   13.3169,      0.00
  4860.00,     25.00,   12.8751,      0.00
  4880.00,     25.00,   13.9511,      0.00
  4900.00,     25.00,    15.209,      0.00
  4920.00,     25.00,   13.7795,      0.00
  4940.00,     25.00,   13.7847,      0.00
  4960.00,     25.00,   11.5497,      0.00
  4980.00,     25.00,   10.3853,      0.00
  5000.00,     25.00,    9.9435,      0.00
  5020.00,     25.00,   12.2774,      0.00
  5040.00,     25.00,    14.159,      0.00
  5060.00,     25.00,   17.2101,      0.00
  5080.00,     25.00,   19.2737,      0.00
  5100.00,     25.00,   22.2313,      0.00
  5120.00,     25.00,   24.2065,      0.00
  5140.00,     25.00,   28.7754,      0.00
  5160.00,     25.00,   32.6322,      0.00
  5180.00,     25.00,   36.8477,      0.00
  5200.00,     25.00,   39.6285,      0.00
  5220.00,     25.00,   36.9465,      0.00
  5240.00,     25.00,   33.9057,      0.00
  5260.00,     25.00,   28.5363,      0.00
  5280.00,     25.00,   22.6263,      0.00
  5300.00,     25.00,   26.3948,      0.00
  5320.00,     25.00,   30.6051,      0.00
  5340.00,     25.00,   35.5378,      0.00
  5360.00,     25.00,   39.9248,      0.00
  5380.00,     25.00,   41.9884,      0.00
  5400.00,     25.00,   46.1155,      0.00
  5420.00,     25.00,   45.7568,      0.00
  5440.00,     25.00,   46.9264,      0.00
  5460.00,     25.00,   45.7672,      0.00
  5480.00,     25.00,   47.7424,      0.00
  5500.00,     25.00,    49.359,      0.00
  5520.00,     25.00,   57.4209,      0.00
  5540.00,     25.00,   62.7071,      0.00
  5560.00,     25.00,   73.9969,      0.00
  5580.00,     25.00,   74.4491,      0.00
  5600.00,     25.00,   72.3907,      0.00
  5620.00,     25.00,   70.3376,      0.00
  5640.00,     25.00,   53.4133,      0.00
  5660.00,     25.00,   46.5209,      0.00
  5680.00,     25.00,   42.1339,      0.00
  5700.00,     25.00,   39.0048,      0.00
  5720.00,     25.00,    39.457,      0.00
  5740.00,     25.00,   40.1795,      0.00
  5760.00,     25.00,   42.1495,      0.00
  5780.00,     25.00,    45.736,      0.00
  5800.00,     25.00,   51.2302,      0.00
  5820.00,     25.00,   48.5117,      0.00
  5840.00,     25.00,    50.622,      0.00
  5860.00,     25.00,   50.7156,      0.00
  5880.00,     25.00,   47.9088,      0.00
  5900.00,     25.00,   49.4057,      0.00
  5920.00,     25.00,   61.9586,      0.00
  5940.00,     25.00,   57.8367,      0.00
  5960.00,     25.00,   58.4552,      0.00
  5980.00,     25.00,   69.2512,      0.00
  6000.00,     25.00,   74.3451,      0.00
  6020.00,     25.00,   69.8697,      0.00
  6040.00,     25.00,    78.914,      0.00
  6060.00,     25.00,   71.2836,      0.00
  6080.00,     25.00,   59.5312,      0.00
  6100.00,     25.00,   58.9178,      0.00
  6120.00,     25.00,   24.0038,      0.00
  6140.00,     25.00,   30.4127,      0.00
  6160.00,     25.00,   24.1857,      0.00
  6180.00,     25.00,   22.5224,      0.00
  6200.00,     25.00,   25.8594,      0.00
  6220.00,     25.00,   29.8981,      0.00
  6240.00,     25.00,   33.5886,      0.00
  6260.00,     25.00,   36.0472,      0.00
  6280.00,     25.00,    39.561,      0.00
  6300.00,     25.00,   39.7429,      0.00
  6320.00,     25.00,   41.5881,      0.00
  6340.00,     25.00,   45.6269,      0.00
  6360.00,     25.00,   45.6373,      0.00
  6380.00,     25.00,   45.9907,      0.00
  6400.00,     25.00,   44.3274,      0.00
  6420.00,     25.00,   42.9292,      0.00
  6440.00,     25.00,   43.1059,      0.00
  6460.00,     25.00,   41.2711,      0.00
  6480.00,     25.00,   40.3095,      0.00
  6500.00,     25.00,   44.0831,      0.00
  6560.00,     25.00,   49.6189,      0.00
  6580.00,     25.00,   51.8124,      0.00
  6600.00,     25.00,   76.6478,      0.00
  6620.00,     25.00,   102.975,      0.00
  6640.00,     25.00,  105.0853,      0.00
  6660.00,     25.00,  105.7922,      0.00
  6680.00,     25.00,  103.4272,      0.00
  6700.00,     25.00,   97.0234,      0.00
  6720.00,     25.00,   73.5135,      0.00
  6740.00,     25.00,   61.6675,      0.00
  6760.00,     25.00,   56.3241,      0.00
  6780.00,     25.00,   57.7275,      0.00
  6800.00,     25.00,    69.667,      0.00
  6820.00,     25.00,   76.5126,      0.00
  6840.00,     25.00,   80.8165,      0.00
  6860.00,     25.00,   81.2583,      0.00
  6880.00,     25.00,   80.0368,      0.00
  6900.00,     25.00,   74.6882,      0.00
  6920.00,     25.00,   72.0581,      0.00
  6940.00,     25.00,   72.4999,      0.00
  6960.00,     25.00,   73.1184,      0.00
  6980.00,     25.00,   73.6486,      0.00
  7000.00,     25.00,   69.4383,      0.00
  7020.00,     25.00,    65.935,      0.00
  7040.00,     25.00,   61.7247,      0.00
  7060.00,     25.00,   60.8514,      0.00
  7080.00,     25.00,   55.8563,      0.00
  7100.00,     25.00,   54.3645,      0.00
  7120.00,     25.00,   52.1762,      0.00
  7140.00,     25.00,   49.8995,      0.00
  7160.00,     25.00,   57.4468,      0.00
  7180.00,     25.00,   56.5736,      0.00
  7200.00,     25.00,   57.7171,      0.00
  7220.00,     25.00,   54.9155,      0.00
  7240.00,     25.00,   49.6552,      0.00
  7260.00,     25.00,   48.4285,      0.00
  7280.00,     25.00,   45.1019,      0.00
  7300.00,     25.00,   46.5937,      0.00
  7320.00,     25.00,   45.7205,      0.00
  7340.00,     25.00,   45.4606,      0.00
  7360.00,     25.00,   47.4825,      0.00
  7380.00,     25.00,   48.1894,      0.00
  7400.00,     25.00,   48.2778,      0.00
  7420.00,     25.00,   47.4929,      0.00
  7440.00,     25.00,   52.6752,      0.00
  7460.00,     25.00,   54.0838,      0.00
  7480.00,     25.00,   55.0506,      0.00
  7500.00,     25.00,    56.636,      0.00
  7520.00,     25.00,   58.5696,      0.00
  7540.00,     25.00,   59.0998,      0.00
  7560.00,     25.00,    56.558,      0.00
  7580.00,     25.00,   59.4584,      0.00
  7620.00,     25.00,    60.077,      0.00
  7640.00,     25.00,   53.4133,      0.00
  7660.00,     25.00,   49.9099,      0.00
  7680.00,     25.00,   44.1195,      0.00
  7700.00,     25.00,   38.9476,      0.00
  7720.00,     25.00,   39.0412,      0.00
  7740.00,     25.00,   37.9912,      0.00
  7780.00,     25.00,   43.1735,      0.00
  7800.00,     25.00,   53.8811,      0.00
  7820.00,     25.00,   56.8699,      0.00
  7840.00,     25.00,   53.1014,      0.00
  7860.00,     25.00,   61.7923,      0.00
  7880.00,     25.00,   59.0738,      0.00
EndData:

