Comment:    Automatically converted from EXFOR at 2020-10-22,16:12:48
            by the IAEA-NDS EXFOR Web-Retrieval System,
            program X4toR33 ver-2020-10-12 (V.Zerkin).
            X4Title: "Elastic scattering of alpha particles by N15"
            X4Author: H.Smotrich, K.W.Jones, L.C.Mcdermott, R.E.Benenson
            EXFOR: C0755002    Created: 2000-12-01  Updated: 2013-12-12
            X4Reaction:7-N-15(A,EL)7-N-15,,DA; X4Points:909
            Converted from C.M. to Lab.: Sigma, Theta
            SigmaLab=SigmaCM/1.8225706
            ThetaLab=165.2 ThetaCM:169.1
            ENSDF:LevelEnergy=0.00
            Systematic uncertainty: ErrSys=1.35%
            AME2016: M1=4.002603254 M2=15.000108898 M3=4.002603254 M4=15.000108898

Version:      R33
X4Number:     C0755002 20131212
Source:       H.Smotrich+(1961), Physical Review, Vol.122, p.232
Reaction:     15N(a,a0)15N
Distribution: Energy
Sigfactors:   1.00, 0.0135
Enfactors:    1.00, 0.00, 0.00, 0.00
Units:        mb
Composition:
Masses:       4.0, 15.0, 4.0, 15.0
Zeds:         2, 7, 2, 7
Qvalue:       0.0, 0.00, 0.00, 0.00, 0.00
Theta:        165.2
Data:
  1745.00,     1.745,   74.5518,    2.2366
  1749.00,     1.749,   73.7579,    2.2127
  1750.00,      1.75,   74.0589,    4.5883
  1753.00,     1.753,   77.5597,    2.3268
  1754.00,     1.754,   71.7679,     2.153
  1755.00,     1.755,   75.0654,    3.3839
  1756.00,     1.756,   69.7729,    2.0932
  1758.00,     1.758,   70.7753,    2.1233
  1761.00,     1.761,   73.1769,    2.1953
  1765.00,     1.765,   74.3812,    2.2314
  1769.00,     1.769,   74.9869,    2.2496
  1772.00,     1.772,   71.5945,    2.1478
  1774.00,     1.774,   70.1992,     2.106
  1779.00,     1.779,   75.2009,     2.256
  1782.00,     1.782,   71.6088,    2.1483
  1785.00,     1.785,   74.0114,    2.2203
  1791.00,     1.791,   69.8245,    2.0947
  1794.00,     1.794,   67.2314,    2.0169
  1800.00,      1.80,   66.4419,    1.9933
  1818.00,     1.818,   67.2676,     2.018
  1823.00,     1.823,   64.4771,    1.9343
  1830.00,      1.83,   63.0889,    1.8927
  1838.00,     1.838,   61.1027,    1.8331
  1843.00,     1.843,   61.3101,    1.8393
  1846.00,     1.846,   58.3176,    1.7495
  1849.00,     1.849,   49.5306,    1.4859
  1851.00,     1.851,   46.3368,    1.3901
  1858.00,     1.858,   44.3484,    1.3305
  1863.00,     1.863,   39.3609,    1.1808
  1865.00,     1.865,   28.5739,    0.8572
  1868.00,     1.868,    22.984,    0.6895
  1871.00,     1.871,   12.4001,     0.372
  1874.00,     1.874,   30.7856,    0.9236
  1875.00,     1.875,   64.3542,    1.9306
  1876.00,     1.876,     91.93,    2.7579
  1881.00,     1.881,  112.5169,    3.3755
  1884.00,     1.884,   106.527,    3.1958
  1887.00,     1.887,   95.7422,    2.8723
  1891.00,     1.891,   88.7543,    2.6626
  1895.00,     1.895,   84.9646,    2.5489
  1897.00,     1.897,   87.3656,     2.621
  1901.00,     1.901,    80.178,    2.4053
  1908.00,     1.908,   77.3907,    2.3217
  1916.00,     1.916,   73.4073,    2.2022
  1927.00,     1.927,   72.0246,    2.1607
  1937.00,     1.937,   69.0431,    2.0713
  1944.00,     1.944,   68.0533,    2.0416
  1950.00,      1.95,   67.8624,    2.0359
  1955.00,     1.955,   67.4701,    2.0241
  1960.00,      1.96,   67.0783,    2.0124
  1964.00,     1.964,   65.4861,    1.9646
  1975.00,     1.975,   61.7063,    1.8512
  1976.00,     1.976,   60.7093,    1.8213
  1979.00,     1.979,   59.5148,    1.7854
  1984.00,     1.984,   57.5242,    1.7257
  1990.00,      1.99,   60.7296,    1.8219
  1997.00,     1.997,   56.1438,    1.6843
  2004.00,     2.004,   56.5542,    1.6966
  2013.00,     2.013,   55.5693,    1.6671
  2017.00,     2.017,   57.7722,    1.7332
  2023.00,     2.023,   57.1824,    1.7155
  2031.00,     2.031,   57.3931,    1.7218
  2038.00,     2.038,   56.6047,    1.6981
  2042.00,     2.042,    55.611,    1.6683
  2045.00,     2.045,   53.8179,    1.6145
  2051.00,     2.051,   56.6239,    1.6987
  2054.00,     2.054,   54.8297,    1.6449
  2062.00,     2.062,   57.6389,    1.7292
  2063.00,     2.063,    54.844,    1.6453
  2068.00,     2.068,   53.2517,    1.5976
  2071.00,     2.071,   55.2549,    1.6576
  2075.00,     2.075,   53.0641,    1.5919
  2081.00,     2.081,   52.8715,    1.5861
  2086.00,     2.086,    54.078,    1.6223
  2087.00,     2.087,   51.6825,    1.5505
  2091.00,     2.091,    51.288,    1.5386
  2094.00,     2.094,   51.8921,    1.5568
  2099.00,     2.099,   51.8992,     1.557
  2102.00,     2.102,   50.1067,    1.5032
  2106.00,     2.106,   53.5085,    1.6053
  2109.00,     2.109,   51.7154,    1.5515
  2112.00,     2.112,   53.9167,    1.6175
  2116.00,     2.116,    53.723,    1.6117
  2120.00,      2.12,   53.3302,    1.5999
  2126.00,     2.126,   53.1387,    1.5942
  2130.00,      2.13,    50.347,    1.5104
  2133.00,     2.133,   52.9499,    1.5885
  2140.00,      2.14,   50.5627,    1.5169
  2144.00,     2.144,   53.3653,     1.601
  2148.00,     2.148,   51.7725,    1.5532
  2154.00,     2.154,   51.3824,    1.5415
  2157.00,     2.157,   50.1879,    1.5056
  2161.00,     2.161,   48.9956,    1.4699
  2164.00,     2.164,   52.1966,    1.5659
  2167.00,     2.167,   51.6013,     1.548
  2170.00,      2.17,   48.6088,    1.4583
  2174.00,     2.174,   51.2117,    1.5364
  2177.00,     2.177,   52.2158,    1.5665
  2182.00,     2.182,   52.0227,    1.5607
  2184.00,     2.184,   50.2274,    1.5068
  2189.00,     2.189,   49.8368,    1.4951
  2195.00,     2.195,   47.8473,    1.4354
  2199.00,     2.199,   49.0511,    1.4715
  2203.00,     2.203,   46.6599,    1.3998
  2208.00,     2.208,   47.8654,     1.436
  2213.00,     2.213,   46.6753,    1.4003
  2218.00,     2.218,   46.8827,    1.4065
  2221.00,     2.221,   45.2882,    1.3586
  2225.00,     2.225,   45.4934,    1.3648
  2230.00,      2.23,   45.3014,     1.359
  2233.00,     2.233,   43.5072,    1.3052
  2235.00,     2.235,   49.7045,    1.4911
  2239.00,     2.239,   46.9123,    1.4074
  2241.00,     2.241,    48.515,    1.4554
  2246.00,     2.246,   49.7215,    1.4916
  2249.00,     2.249,   47.1285,    1.4139
  2253.00,     2.253,   46.3346,      1.39
  2254.00,     2.254,   47.7342,     1.432
  2260.00,      2.26,    43.747,    1.3124
  2263.00,     2.263,   42.3534,    1.2706
  2266.00,     2.266,   45.7546,    1.3726
  2268.00,     2.268,   43.9582,    1.3187
  2270.00,      2.27,   43.1632,    1.2949
  2274.00,     2.274,   42.7693,    1.2831
  2282.00,     2.282,   41.5819,    1.2475
  2289.00,     2.289,   44.1903,    1.3257
  2293.00,     2.293,   45.5944,    1.3678
  2296.00,     2.296,   42.6014,     1.278
  2299.00,     2.299,   45.0035,    1.3501
  2303.00,     2.303,   42.4126,    1.2724
  2307.00,     2.307,   42.2189,    1.2666
  2309.00,     2.309,   44.0202,    1.3206
  2314.00,     2.314,   45.8259,    1.3748
  2317.00,     2.317,   44.0323,     1.321
  2322.00,     2.322,   45.4386,    1.3632
  2323.00,     2.323,   39.8448,    1.1953
  2328.00,     2.328,   44.4482,    1.3334
  2330.00,      2.33,   40.6552,    1.2197
  2334.00,     2.334,   42.6584,    1.2798
  2338.00,     2.338,   41.6648,    1.2499
  2342.00,     2.342,   41.6714,    1.2501
  2346.00,     2.346,   42.6765,    1.2803
  2351.00,     2.351,   43.6828,    1.3105
  2353.00,     2.353,   41.4876,    1.2446
  2357.00,     2.357,   41.0942,    1.2328
  2360.00,      2.36,   37.7017,    1.1311
  2363.00,     2.363,   40.3035,    1.2091
  2369.00,     2.369,   41.9117,    1.2574
  2373.00,     2.373,   39.5195,    1.1856
  2374.00,     2.374,   37.1239,    1.1137
  2378.00,     2.378,   38.1286,    1.1439
  2383.00,     2.383,   40.9328,     1.228
  2387.00,     2.387,   37.9415,    1.1382
  2391.00,     2.391,   38.5472,    1.1564
  2394.00,     2.394,   40.1499,    1.2045
  2397.00,     2.397,    39.356,    1.1807
  2402.00,     2.402,   37.5645,    1.1269
  2405.00,     2.405,   39.7675,     1.193
  2408.00,     2.408,   36.9747,    1.1092
  2413.00,     2.413,   37.5804,    1.1274
  2418.00,     2.418,   37.7878,    1.1336
  2421.00,     2.421,   35.9948,    1.0798
  2424.00,     2.424,    37.198,    1.1159
  2428.00,     2.428,   37.4032,    1.1221
  2431.00,     2.431,   36.8079,    1.1042
  2435.00,     2.435,   37.8136,    1.1344
  2439.00,     2.439,   39.2171,    1.1765
  2441.00,     2.441,   37.0241,    1.1107
  2448.00,     2.448,   36.4343,     1.093
  2453.00,     2.453,     37.84,    1.1352
  2455.00,     2.455,   40.6404,    1.2192
  2459.00,     2.459,   39.6468,    1.1894
  2461.00,     2.461,   37.6523,    1.1296
  2467.00,     2.467,   40.4577,    1.2137
  2469.00,     2.469,   37.2644,    1.1179
  2474.00,     2.474,   40.0692,    1.2021
  2478.00,     2.478,    37.677,    1.1303
  2482.00,     2.482,   39.4816,    1.1844
  2485.00,     2.485,   38.2871,    1.1486
  2488.00,     2.488,   39.8909,    1.1967
  2493.00,     2.493,   35.9009,     1.077
  2498.00,     2.498,   40.5038,    1.2151
  2502.00,     2.502,   41.7092,    1.2513
  2505.00,     2.505,   37.7176,    1.1315
  2509.00,     2.509,   36.9248,    1.1077
  2514.00,     2.514,   38.7294,    1.1619
  2516.00,     2.516,   37.1355,    1.1141
  2522.00,     2.522,   35.3446,    1.0603
  2526.00,     2.526,   35.9503,    1.0785
  2530.00,      2.53,    34.757,    1.0427
  2532.00,     2.532,   36.7591,    1.1028
  2538.00,     2.538,    37.367,     1.121
  2544.00,     2.544,   36.5764,    1.0973
  2547.00,     2.547,   38.1801,    1.1454
  2550.00,      2.55,   37.1848,    1.1155
  2554.00,     2.554,   36.5917,    1.0978
  2558.00,     2.558,   35.3995,     1.062
  2563.00,     2.563,   35.4066,    1.0622
  2569.00,     2.569,   35.8148,    1.0744
  2572.00,     2.572,   36.6186,    1.0986
  2577.00,     2.577,   34.0283,    1.0208
  2581.00,     2.581,   37.4306,    1.1229
  2584.00,     2.584,   35.6376,    1.0691
  2590.00,      2.59,   36.2455,    1.0874
  2591.00,     2.591,   38.4457,    1.1534
  2594.00,     2.594,   39.3011,     1.179
  2598.00,     2.598,   39.2983,     1.179
  2604.00,     2.604,   43.4463,    1.3034
  2607.00,     2.607,   55.3811,    5.9384
  2609.00,     2.609,   74.0641,     4.895
  2610.00,      2.61,  101.5714,    3.0471
  2615.00,     2.615,   92.7443,    2.7823
  2617.00,     2.617,   58.4877,    1.7546
  2618.00,     2.618,   30.4603,    0.9138
  2622.00,     2.622,   32.5332,     0.976
  2626.00,     2.626,   36.1632,    1.0849
  2631.00,     2.631,   34.0837,    1.0225
  2632.00,     2.632,   28.3742,    0.8512
  2635.00,     2.635,   23.7006,     0.711
  2636.00,     2.636,   14.3572,    0.4307
  2637.00,     2.637,   32.0037,    0.9601
  2638.00,     2.638,   10.7228,    0.3217
  2644.00,     2.644,   14.3514,    2.5687
  2647.00,     2.647,   23.1728,    0.6952
  2650.00,      2.65,   29.9176,    0.8975
  2651.00,     2.651,   26.2838,    0.7885
  2653.00,     2.653,   23.1678,     0.695
  2658.00,     2.658,   26.2783,    0.7883
  2659.00,     2.659,   24.2015,     0.726
  2665.00,     2.665,   27.3114,    0.8193
  2668.00,     2.668,   25.2325,     0.757
  2673.00,     2.673,   25.2292,    0.7569
  2678.00,     2.678,    26.264,    0.7879
  2683.00,     2.683,   26.2602,    0.7878
  2686.00,     2.686,   27.2955,    0.8189
  2691.00,     2.691,   28.3303,    0.8499
  2694.00,     2.694,   28.3281,    0.8498
  2699.00,     2.699,   28.8428,    0.8653
  2703.00,     2.703,     28.84,    0.8652
  2707.00,     2.707,   29.8754,    0.8963
  2711.00,     2.711,   29.3536,    0.8806
  2714.00,     2.714,   29.8699,    0.8961
  2719.00,     2.719,   32.4613,    0.9738
  2724.00,     2.724,   28.8247,    0.8647
  2730.00,      2.73,   30.3769,    0.9113
  2737.00,     2.737,   27.7773,    0.8333
  2741.00,     2.741,   27.2555,    0.8177
  2744.00,     2.744,   28.2914,    0.8487
  2748.00,     2.748,   27.2494,    0.8175
  2753.00,     2.753,   25.1699,    0.7551
  2758.00,     2.758,   25.1667,     0.755
  2759.00,     2.759,   28.7983,     0.864
  2764.00,     2.764,   27.2379,    0.8171
  2768.00,     2.768,   27.7542,    0.8326
  2771.00,     2.771,   25.6758,    0.7703
  2774.00,     2.774,   30.3451,    0.9104
  2777.00,     2.777,   28.0066,    2.7114
  2781.00,     2.781,   27.7443,    0.8323
  2783.00,     2.783,   26.1861,    0.7856
  2787.00,     2.787,   26.1833,    0.7855
  2789.00,     2.789,    24.624,    0.7387
  2795.00,     2.795,   23.5815,    0.7074
  2798.00,     2.798,   25.6555,    0.7697
  2804.00,     2.804,   22.5374,    0.6761
  2806.00,     2.806,   25.1304,    0.7539
  2811.00,     2.811,   22.2724,    2.0047
  2816.00,     2.816,   21.4905,    0.6447
  2819.00,     2.819,   18.8925,    0.5668
  2824.00,     2.824,    16.294,    0.4888
  2827.00,     2.827,   10.5829,    0.3175
  2831.00,     2.831,   11.0992,     0.333
  2836.00,     2.836,   28.7413,    0.8622
  2837.00,     2.837,   21.4746,    0.6442
  2839.00,     2.839,   34.4486,    1.0335
  2842.00,     2.842,   40.6744,    1.2202
  2846.00,     2.846,   40.6717,    1.2202
  2850.00,      2.85,   40.1493,    1.2045
  2853.00,     2.853,   42.7424,    1.2823
  2859.00,     2.859,   41.6999,     1.251
  2864.00,     2.864,   43.7728,    1.3132
  2866.00,     2.866,   47.9235,    1.4377
  2869.00,     2.869,   46.8827,    1.4065
  2871.00,     2.871,   52.0715,    1.5621
  2873.00,     2.873,    59.855,    1.7957
  2876.00,     2.876,    68.157,    2.0447
  2877.00,     2.877,   72.8279,    2.1848
  2878.00,     2.878,   89.9543,    2.6986
  2880.00,      2.88,  121.6129,    3.6484
  2882.00,     2.882,   78.0134,    2.3404
  2886.00,     2.886,   30.0019,   12.3935
  2887.00,     2.887,   38.0463,    1.1414
  2890.00,      2.89,   17.2833,    0.5185
  2892.00,     2.892,   20.3959,    0.6119
  2895.00,     2.895,     17.28,    0.5184
  2896.00,     2.896,   21.9498,    0.6585
  2902.00,     2.902,   24.0216,    0.7206
  2907.00,     2.907,   27.6511,    0.8295
  2911.00,     2.911,   28.6864,    0.8606
  2915.00,     2.915,   29.2022,    0.8761
  2917.00,     2.917,   30.7577,    0.9227
  2919.00,     2.919,   34.9084,    1.0473
  2922.00,     2.922,   30.2353,    0.9071
  2925.00,     2.925,   36.7207,    2.9728
  2929.00,     2.929,   40.0906,    1.2027
  2930.00,      2.93,   44.2425,    1.3273
  2932.00,     2.932,   48.3932,    1.4518
  2935.00,     2.935,   58.7714,    1.7631
  2936.00,     2.936,   97.1776,    2.9153
  2937.00,     2.937,   72.2644,    2.1679
  2938.00,     2.938,   155.825,    4.6748
  2940.00,      2.94,   181.774,    5.4532
  2946.00,     2.946,  134.5391,    4.0362
  2950.00,      2.95,   49.4176,    1.4825
  2951.00,     2.951,   39.5557,    1.1867
  2952.00,     2.952,   19.8324,    6.4752
  2956.00,     2.956,    12.044,    0.3613
  2957.00,     2.957,    8.4101,    0.2523
  2962.00,     2.962,   11.5205,    0.3456
  2968.00,     2.968,    9.4405,    0.2832
  2971.00,     2.971,   12.0325,     0.361
  2975.00,     2.975,   12.5488,    0.3765
  2982.00,     2.982,    14.101,     0.423
  2986.00,     2.986,   15.1358,    0.4541
  2990.00,      2.99,    15.133,     0.454
  2995.00,     2.995,   14.6101,    0.4383
  3001.00,     3.001,   16.1634,    0.4849
  3006.00,     3.006,    16.159,    0.4848
  3011.00,     3.011,   16.1558,    0.4847
  3016.00,     3.016,   16.1519,    0.4846
  3019.00,     3.019,   17.7063,    0.5312
  3022.00,     3.022,   15.1094,    0.4533
  3024.00,     3.024,   18.2221,    0.5467
  3029.00,     3.029,   16.6616,    0.4998
  3032.00,     3.032,   16.1404,    0.4842
  3036.00,     3.036,   16.1365,    0.4841
  3041.00,     3.041,   17.6904,    0.5307
  3046.00,     3.046,   15.6109,    0.4683
  3050.00,      3.05,   17.6833,    0.5305
  3054.00,     3.054,   18.1996,     0.546
  3057.00,     3.057,   16.6402,    0.4992
  3062.00,     3.062,   18.7131,    0.5614
  3067.00,     3.067,   18.7087,    0.5613
  3074.00,     3.074,   19.2228,    0.5767
  3076.00,     3.076,   14.5503,    0.4365
  3081.00,     3.081,   20.2555,    0.6077
  3084.00,     3.084,   19.2152,    0.5765
  3089.00,     3.089,   19.2119,    0.5764
  3093.00,     3.093,   21.8044,    0.6541
  3100.00,      3.10,   19.7227,    0.5917
  3101.00,     3.101,   22.8359,    0.6851
  3103.00,     3.103,   22.8348,     0.685
  3107.00,     3.107,   21.2749,    0.6382
  3110.00,      3.11,   23.8668,     0.716
  3113.00,     3.113,   25.9408,    0.7782
  3116.00,     3.116,    23.863,    0.7159
  3120.00,      3.12,   24.3793,    0.7314
  3124.00,     3.124,   24.8945,    0.7468
  3129.00,     3.129,   26.9674,     0.809
  3134.00,     3.134,   24.3689,    0.7311
  3139.00,     3.139,   28.5174,    0.8555
  3142.00,     3.142,   28.5147,    0.8554
  3148.00,     3.148,   29.0293,    0.8709
  3153.00,     3.153,   31.3615,    3.3463
  3155.00,     3.155,   36.2905,    1.0887
  3159.00,     3.159,   36.2872,    1.0886
  3165.00,     3.165,     37.84,    1.1352
  3168.00,     3.168,    34.724,    1.0417
  3171.00,     3.171,    37.835,    1.1351
  3176.00,     3.176,   37.8317,     1.135
  3181.00,     3.181,   33.6761,    1.0103
  3182.00,     3.182,   36.2708,    1.0881
  3185.00,     3.185,   32.1162,    0.9635
  3187.00,     3.187,   30.0383,    0.9012
  3188.00,     3.188,   34.1896,    1.0257
  3190.00,      3.19,   49.2398,    1.4772
  3192.00,     3.192,   65.8466,    1.9754
  3198.00,     3.198,   69.4755,    2.0843
  3201.00,     3.201,   65.5807,    3.3043
  3205.00,     3.205,   60.1277,    1.8038
  3208.00,     3.208,   62.2017,    1.8661
  3211.00,     3.211,   65.3138,    1.9594
  3216.00,     3.216,   66.3486,    1.9905
  3217.00,     3.217,   68.9427,    2.0683
  3220.00,      3.22,   94.0256,   26.6993
  3227.00,     3.227,  106.5635,   15.7596
  3228.00,     3.228,   75.6816,    16.704
  3231.00,     3.231,    48.171,    1.4451
  3235.00,     3.235,    46.092,    1.3828
  3242.00,     3.242,   46.6062,    1.3982
  3244.00,     3.244,   51.2759,    1.5383
  3248.00,     3.248,   53.8679,     1.616
  3252.00,     3.252,    52.827,    1.5848
  3258.00,     3.258,   58.0126,    1.7404
  3262.00,     3.262,   54.3765,    1.6313
  3268.00,     3.268,   55.4102,    1.6623
  3271.00,     3.271,   58.0032,    1.7401
  3275.00,     3.275,   53.8481,    1.6154
  3276.00,     3.276,   57.4804,    1.7244
  3281.00,     3.281,   55.9194,    1.6776
  3284.00,     3.284,   57.9934,    1.7398
  3288.00,     3.288,   56.4335,     1.693
  3293.00,     3.293,   62.6582,    1.8797
  3295.00,     3.295,   60.5798,    1.8174
  3299.00,     3.299,   56.9443,    1.7083
  3302.00,     3.302,   64.2082,    1.9262
  3308.00,     3.308,   59.0139,    1.7704
  3310.00,      3.31,    62.645,    1.8794
  3320.00,      3.32,    63.157,    1.8947
  3324.00,     3.324,   60.0394,    1.8012
  3329.00,     3.329,   63.6689,    1.9101
  3333.00,     3.333,   58.9952,    1.7699
  3338.00,     3.338,   60.0295,    1.8009
  3341.00,     3.341,   61.5839,    1.8475
  3345.00,     3.345,   61.5812,    1.8474
  3351.00,     3.351,   69.3625,    2.0809
  3355.00,     3.355,   64.1687,    1.9251
  3360.00,      3.36,   58.9749,    1.7692
  3363.00,     3.363,    62.087,    1.8626
  3369.00,     3.369,   65.7154,    1.9714
  3375.00,     3.375,   61.0402,    1.8312
  3379.00,     3.379,   57.4041,    1.7221
  3381.00,     3.381,    63.112,    1.8934
  3385.00,     3.385,   64.1462,    1.9244
  3392.00,     3.392,   58.4323,     1.753
  3397.00,     3.397,    58.429,    1.7529
  3400.00,      3.40,   63.0971,    1.8929
  3406.00,     3.406,   62.0552,    1.8617
  3414.00,     3.414,   60.4915,    1.8147
  3418.00,     3.418,   64.1221,    1.9237
  3422.00,     3.422,   61.5241,    1.8457
  3427.00,     3.427,   62.5589,    1.8768
  3433.00,     3.433,   63.5921,    1.9078
  3438.00,     3.438,   58.9173,    1.7675
  3443.00,     3.443,   62.5468,    1.8764
  3448.00,     3.448,   59.4287,    1.7829
  3451.00,     3.451,   65.1355,    1.9541
  3456.00,     3.456,   62.5369,    1.8761
  3459.00,     3.459,    59.421,    1.7826
  3466.00,     3.466,   58.3774,    1.7513
  3470.00,      3.47,   62.5265,    1.8758
  3474.00,     3.474,   63.0428,    1.8913
  3478.00,     3.478,   63.0395,    1.8912
  3484.00,     3.484,   58.3643,    1.7509
  3488.00,     3.488,   61.9943,    1.8598
  3489.00,     3.489,    65.108,    1.9532
  3493.00,     3.493,   60.9524,    1.8286
  3495.00,     3.495,    57.837,    1.7351
  3501.00,     3.501,   61.2061,    4.2417
  3508.00,     3.508,    63.017,    1.8905
  3515.00,     3.515,   65.0883,    1.9526
  3521.00,     3.521,   52.6277,   20.8242
  3523.00,     3.523,   29.2702,    0.8781
  3528.00,     3.528,   33.9378,    1.0181
  3529.00,     3.529,   28.7468,    0.8624
  3530.00,      3.53,   38.6076,    1.1582
  3533.00,     3.533,   44.8334,     1.345
  3534.00,     3.534,   47.9471,    1.4384
  3536.00,     3.536,   51.0598,    1.5318
  3543.00,     3.543,   56.2442,    1.6873
  3551.00,     3.551,   53.6435,    1.6093
  3559.00,     3.559,   57.2702,    1.7181
  3562.00,     3.562,   54.1543,    1.6246
  3566.00,     3.566,   57.7838,    1.7335
  3568.00,     3.568,   60.3774,    1.8113
  3573.00,     3.573,   60.1145,    3.6746
  3579.00,     3.579,    70.231,    2.1069
  3580.00,      3.58,    82.168,     2.465
  3582.00,     3.582,  110.1933,    3.3058
  3583.00,     3.583,  134.5863,    4.0376
  3587.00,     3.587,   88.9096,    2.6673
  3589.00,     3.589,  126.2771,    3.7883
  3590.00,      3.59,   63.4757,    1.9043
  3595.00,     3.595,    52.054,    1.5616
  3600.00,      3.60,   48.4168,    1.4525
  3604.00,     3.604,   51.0087,    1.5303
  3610.00,      3.61,    52.562,    1.5769
  3614.00,     3.614,   53.0772,    1.5923
  3619.00,     3.619,   54.6311,    1.6389
  3625.00,     3.625,   53.3291,    4.0057
  3631.00,     3.631,   56.1789,    5.4277
  3641.00,     3.641,   47.8676,     1.436
  3647.00,     3.647,   38.0013,      1.14
  3651.00,     3.651,   27.0996,     0.813
  3660.00,      3.66,   14.1169,    0.4235
  3664.00,     3.664,   10.4814,    0.3144
  3670.00,      3.67,   14.1103,    0.4233
  3673.00,     3.673,   13.5885,    0.4077
  3679.00,     3.679,   16.1793,    0.4854
  3685.00,     3.685,   15.1369,    0.4541
  3689.00,     3.689,   19.2854,    0.5786
  3694.00,     3.694,   20.3202,    0.6096
  3699.00,     3.699,   28.1021,    0.8431
  3700.00,      3.70,    57.685,    1.7306
  3702.00,     3.702,   105.952,    3.1786
  3706.00,     3.706,    91.935,     2.758
  3707.00,     3.707,   61.0531,   17.0674
  3711.00,     3.711,   34.3213,    1.0296
  3717.00,     3.717,   29.1259,    0.8738
  3719.00,     3.719,   31.7195,    0.9516
  3724.00,     3.724,   28.6019,    0.8581
  3729.00,     3.729,   28.0796,    0.8424
  3732.00,     3.732,    23.925,    0.7177
  3736.00,     3.736,    27.036,    0.8111
  3742.00,     3.742,   23.9179,    0.7175
  3747.00,     3.747,   28.5855,    0.8576
  3751.00,     3.751,    27.025,    0.8108
  3757.00,     3.757,   26.5016,     0.795
  3759.00,     3.759,   30.1333,     0.904
  3767.00,     3.767,   28.5701,    0.8571
  3769.00,     3.769,   31.6827,    0.9505
  3775.00,     3.775,    32.717,    0.9815
  3779.00,     3.779,   36.8661,     1.106
  3784.00,     3.784,    34.786,    1.0436
  3786.00,     3.786,   39.4558,    1.1837
  3794.00,     3.794,   40.4879,    1.2146
  3796.00,     3.796,   46.1952,    1.3859
  3802.00,     3.802,   47.1148,    1.4134
  3807.00,     3.807,   50.1923,    1.5058
  3811.00,     3.811,   58.3901,    1.7517
  3816.00,     3.816,   59.4194,    1.7826
  3820.00,      3.82,   64.5451,    1.9364
  3826.00,     3.826,   67.6237,    2.0287
  3831.00,     3.831,   81.9672,     2.459
  3835.00,     3.835,   75.8259,    2.2748
  3839.00,     3.839,   79.9272,    2.3978
  3845.00,     3.845,   87.1017,    2.6131
  3852.00,     3.852,   81.2287,    2.4369
  3855.00,     3.855,   89.7183,    2.6916
  3861.00,     3.861,   88.7817,    2.6635
  3865.00,     3.865,   95.3873,    2.8616
  3870.00,      3.87,  102.9359,    3.0881
  3879.00,     3.879,  115.2038,    3.4561
  3884.00,     3.884,  117.0956,    3.5129
  3888.00,     3.888,  122.7568,    3.6827
  3892.00,     3.892,  138.7924,    4.1638
  3898.00,     3.898,  144.4564,    4.3337
  3904.00,     3.904,  160.4931,    4.8148
  3908.00,     3.908,  171.8128,    5.1544
  3912.00,     3.912,  187.8479,    5.6354
  3917.00,     3.917,  202.9414,    6.0882
  3921.00,     3.921,  220.8622,    6.6259
  3927.00,     3.927,  215.2103,    6.4563
  3933.00,     3.933,  209.5579,    6.2867
  3937.00,     3.937,  183.1589,    5.4948
  3941.00,     3.941,   139.785,    4.1935
  3947.00,     3.947,  103.0149,    3.0904
  3950.00,      3.95,   71.8995,     2.157
  3956.00,     3.956,    59.646,    1.7894
  3960.00,      3.96,    48.335,    1.4501
  3966.00,     3.966,   44.5689,    1.3371
  3970.00,      3.97,   40.8017,    1.2241
  3976.00,     3.976,    39.864,    1.1959
  3980.00,      3.98,   42.6979,    1.2809
  3985.00,     3.985,   42.7029,    1.2811
  3990.00,      3.99,   40.8215,    1.2246
  3995.00,     3.995,   42.7133,    1.2814
  4001.00,     4.001,   41.7756,    1.2533
  4004.00,     4.004,     48.38,    1.4514
  4009.00,     4.009,   49.3287,    1.4799
  4015.00,     4.015,   47.4478,    1.4234
  4019.00,     4.019,   54.0533,    1.6216
  4024.00,     4.024,   51.2298,    1.5369
  4029.00,     4.029,   54.0638,    1.6219
  4035.00,     4.035,   54.0698,    1.6221
  4038.00,     4.038,   63.5021,    1.9051
  4044.00,     4.044,   58.7933,    1.7638
  4050.00,      4.05,    53.142,    1.5943
  4053.00,     4.053,   60.6885,    1.8207
  4059.00,     4.059,   65.4098,    1.9623
  4062.00,     4.062,    58.812,    1.7644
  4068.00,     4.068,   61.6475,    1.8494
  4073.00,     4.073,   66.3678,     1.991
  4077.00,     4.077,   69.2001,     2.076
  4082.00,     4.082,   73.9209,    2.2176
  4088.00,     4.088,   72.0411,    2.1612
  4094.00,     4.094,   70.1613,    2.1048
  4097.00,     4.097,   77.7078,    2.3312
  4100.00,      4.10,   84.3122,    2.5294
  4104.00,     4.104,   75.8297,    2.2749
  4110.00,      4.11,   79.6068,    2.3882
  4114.00,     4.114,   82.4402,    2.4732
  4119.00,     4.119,   80.5587,    2.4168
  4120.00,      4.12,   75.8456,    2.2754
  4122.00,     4.122,   71.1325,     2.134
  4123.00,     4.123,   63.5899,    1.9077
  4128.00,     4.128,   84.3408,    2.5302
  4129.00,     4.129,   64.5385,    1.9362
  4133.00,     4.133,   91.8894,    2.7567
  4134.00,     4.134,  110.7502,    3.3225
  4141.00,     4.141,  114.5294,    3.4359
  4143.00,     4.143,   125.847,    3.7754
  4147.00,     4.147,  133.3962,    4.0019
  4153.00,     4.153,  137.1733,    4.1152
  4156.00,     4.156,  144.7209,    4.3416
  4162.00,     4.162,  144.7269,    4.3418
  4167.00,     4.167,  161.7057,    4.8512
  4172.00,     4.172,  166.4254,    4.9928
  4176.00,     4.176,  181.5178,    5.4456
  4182.00,     4.182,  191.8966,    5.7569
  4187.00,     4.187,  203.2179,    6.0965
  4191.00,     4.191,  215.4803,    6.4644
  4196.00,     4.196,  222.0863,    6.6626
  4202.00,     4.202,  228.6935,    6.8608
  4208.00,     4.208,  222.0989,     6.663
  4210.00,      4.21,   236.246,    7.0874
  4217.00,     4.217,    235.31,    7.0593
  4222.00,     4.222,  218.3416,    6.5502
  4227.00,     4.227,  210.8023,    6.3241
  4232.00,     4.232,  199.4913,    5.9847
  4237.00,     4.237,  185.3519,    5.5606
  4242.00,     4.242,  163.6688,      4.91
  4246.00,     4.246,  151.4142,    4.5424
  4252.00,     4.252,   135.389,    4.0617
  4257.00,     4.257,  109.9332,     3.298
  4261.00,     4.261,   95.7927,    2.8738
  4265.00,     4.265,   83.5381,    2.5061
  4270.00,      4.27,   71.2845,    2.1385
  4275.00,     4.275,   73.1752,    2.1953
  4280.00,      4.28,   75.0665,     2.252
  4286.00,     4.286,   76.0152,    2.2805
  4290.00,      4.29,   83.5638,    2.5069
  4296.00,     4.296,   83.5693,    2.5071
  4301.00,     4.301,   86.4038,    2.5921
  4305.00,     4.305,   84.5218,    2.5357
  4312.00,     4.312,   85.4716,    2.5641
  4319.00,     4.319,   85.4787,    2.5643
  4323.00,     4.323,   88.3121,    2.6494
  4327.00,     4.327,   88.3165,    2.6495
  4332.00,     4.332,   88.3214,    2.6496
  4337.00,     4.337,   90.2121,    2.7064
  4339.00,     4.339,   82.6706,    2.4801
  4341.00,     4.341,   98.7034,    2.9611
  4345.00,     4.345,   87.3914,    2.6217
  4346.00,     4.346,     95.88,    2.8764
  4352.00,     4.352,   88.3417,    2.6503
  4354.00,     4.354,   95.8876,    2.8766
  4358.00,     4.358,  100.6068,    3.0182
  4364.00,     4.364,   95.8981,    2.8769
  4368.00,     4.368,  101.5599,    3.0468
  4373.00,     4.373,  104.3943,    3.1318
  4377.00,     4.377,  110.9993,      3.33
  4385.00,     4.385,  111.9501,    3.3585
  4388.00,     4.388,  114.7824,    3.4435
  4396.00,     4.396,  124.2207,    8.5828
  4402.00,     4.402,  127.0557,    3.8116
  4405.00,     4.405,  134.6033,    4.0381
  4408.00,     4.408,  144.0356,    4.3211
  4411.00,     4.411,  158.1832,    4.7455
  4415.00,     4.415,  153.4728,    4.6042
  4420.00,      4.42,  150.6493,    4.5195
  4424.00,     4.424,  168.5696,    9.9139
  4428.00,     4.428,  184.6041,    5.5381
  4433.00,     4.433,  192.1539,    5.7646
  4435.00,     4.435,  199.6998,     5.991
  4438.00,     4.438,  210.0753,    6.3023
  4442.00,     4.442,  242.1421,    7.2643
  4446.00,     4.446,  229.8863,    6.8966
  4448.00,     4.448,  249.6918,    7.4908
  4456.00,     4.456,  269.5023,    8.0851
  4459.00,     4.459,  301.5664,     9.047
  4465.00,     4.465,  323.2622,    9.6979
  4476.00,     4.476,  359.1071,   10.7732
  4479.00,     4.479,  370.4263,   11.1128
  4483.00,     4.483,  386.4603,   11.5938
  4485.00,     4.485,  394.9499,   11.8485
  4488.00,     4.488,  401.5537,   12.0466
  4491.00,     4.491,  396.8417,   11.9053
  4495.00,     4.495,  393.0739,   11.7922
  4501.00,     4.501,  382.7073,   11.4812
  4503.00,     4.503,  372.3362,   11.1701
  4507.00,     4.507,  371.3975,   11.1419
  4513.00,     4.513,  347.8291,   10.4349
  4522.00,     4.522,  337.4652,    10.124
  4525.00,     4.525,  313.8929,    9.4168
  4532.00,     4.532,  306.3569,    9.1907
  4535.00,     4.535,  290.3295,    8.7099
  4541.00,     4.541,  279.9629,    8.3989
  4547.00,     4.547,  270.5382,    8.1161
  4552.00,     4.552,  241.3114,    7.2393
  4556.00,     4.556,  221.5124,    6.6454
  4562.00,     4.562,  163.9958,    4.9199
  4566.00,     4.566,  132.8821,    3.9865
  4571.00,     4.571,  108.3689,    3.2511
  4578.00,     4.578,  104.6039,    3.1381
  4582.00,     4.582,   87.6345,     2.629
  4587.00,     4.587,   82.9252,    2.4878
  4593.00,     4.593,   88.5892,    2.6577
  4603.00,     4.603,   85.7706,    2.5731
  4608.00,     4.608,   86.7182,    2.6015
  4614.00,     4.614,   90.4958,    2.7149
  4619.00,     4.619,   95.2161,    2.8565
  4626.00,     4.626,    97.109,    2.9132
  4630.00,      4.63,   90.5128,    2.7154
  4635.00,     4.635,   96.1757,    2.8853
  4641.00,     4.641,  100.8965,    3.0269
  4645.00,     4.645,   98.0719,    2.9422
  4649.00,     4.649,  103.7343,     3.112
  4656.00,     4.656,  102.7982,    3.0839
  4661.00,     4.661,  106.5758,    3.1973
  4666.00,     4.666,  108.4666,     3.254
  4671.00,     4.671,  113.1863,    3.3956
  4678.00,     4.678,  120.7372,    3.6221
  4682.00,     4.682,  127.3427,    3.8203
  4687.00,     4.687,  142.4356,    4.2731
  4693.00,     4.693,  136.7837,    4.1035
  4697.00,     4.697,  151.8756,    4.5563
  4703.00,     4.703,   59.4688,    1.7841
  4713.00,     4.713,   31.1895,    0.9357
  4718.00,     4.718,   25.5365,    0.7661
  4723.00,     4.723,   23.6561,    0.7097
  4728.00,     4.728,   24.6037,    0.7381
  4729.00,     4.729,   31.2059,    0.9362
  4734.00,     4.734,   30.2682,     0.908
  4738.00,     4.738,   35.9295,    1.0779
  4741.00,     4.741,   41.5907,    1.2477
  4747.00,     4.747,    49.141,    1.4742
  4751.00,     4.751,   41.6011,     1.248
  4754.00,     4.754,   47.2618,    1.4179
  4758.00,     4.758,    51.981,    1.5594
  4762.00,     4.762,   56.7001,     1.701
  4766.00,     4.766,    62.363,    1.8709
  4773.00,     4.773,    68.027,    2.0408
  4776.00,     4.776,   58.6002,     1.758
  4777.00,     4.777,   46.3428,    1.3903
  4779.00,     4.779,   37.8581,    1.1357
  4782.00,     4.782,   48.2335,     1.447
  4786.00,     4.786,   52.0101,    1.5603
  4788.00,     4.788,   61.4418,    1.8433
  4791.00,     4.791,   75.5899,    2.2677
  4795.00,     4.795,   68.9927,    2.0698
  4797.00,     4.797,   78.4244,    2.3527
  4800.00,      4.80,   76.4437,    2.2933
  4804.00,     4.804,   77.0242,    2.3107
  4812.00,     4.812,   77.0368,    2.3111
  4820.00,      4.82,    84.524,    2.5357
  4827.00,     4.827,     82.81,    2.4843
  4831.00,     4.831,   89.7167,    2.6915
  4832.00,     4.832,   83.3932,    2.5018
  4838.00,     4.838,   87.4271,    2.6228
  4842.00,     4.842,   82.8336,     2.485
  4847.00,     4.847,   92.0414,    2.7612
  4853.00,     4.853,   94.3508,    2.8305
  4856.00,     4.856,   88.0306,    2.6409
  4863.00,     4.863,   95.5156,    2.8655
  4868.00,     4.868,   95.5239,    2.8657
  4871.00,     4.871,   89.7787,    2.6934
  4873.00,     4.873,   98.9816,    2.9694
  4875.00,     4.875,   92.0848,    2.7625
  4880.00,      4.88,   92.6675,      2.78
  4886.00,     4.886,   96.1274,    2.8838
  4890.00,      4.89,   96.7079,    2.9012
  4895.00,     4.895,   98.4406,    2.9532
  4897.00,     4.897,   94.9944,    2.8498
  4901.00,     4.901,   94.4254,    2.8328
  4905.00,     4.905,   94.4309,    2.8329
  4907.00,     4.907,   99.0348,     2.971
  4910.00,      4.91,   96.7397,    2.9022
  4914.00,     4.914,   93.8702,    2.8161
  4917.00,     4.917,   98.4752,    2.9543
  4920.00,      4.92,   99.0552,    2.9717
  4925.00,     4.925,  100.2129,    3.0064
  4930.00,      4.93,    99.645,    2.9893
  4934.00,     4.934,  103.6766,    3.1103
  4939.00,     4.939,  106.5594,    3.1968
  4941.00,     4.941,  101.3881,    3.0416
  4946.00,     4.946,  101.9708,    3.0591
  4949.00,     4.949,  105.4253,    3.1628
  4954.00,     4.954,  107.7336,     3.232
  4957.00,     4.957,  106.5879,    3.1976
  4961.00,     4.961,    106.02,    3.1806
  4966.00,     4.966,  105.4516,    3.1635
  4970.00,      4.97,  105.4593,    3.1638
  4974.00,     4.974,  103.7392,    3.1122
  4977.00,     4.977,  103.1691,    3.0951
  4982.00,     4.982,  104.9018,    3.1471
  4987.00,     4.987,  105.4845,    3.1645
  4991.00,     4.991,  106.6406,    3.1992
  4995.00,     4.995,  107.7967,    3.2339
  4998.00,     4.998,  112.1153,    7.8054
  5002.00,     5.002,   123.334,      3.70
  5005.00,     5.005,  114.7127,    3.4414
  5007.00,     5.007,  110.6915,    3.3207
  5011.00,     5.011,  101.4968,    3.0449
  5014.00,     5.014,  105.5279,    3.1658
  5015.00,     5.015,  110.1291,    3.3039
  5020.00,      5.02,  113.5857,    3.4076
  5022.00,     5.022,   106.115,    3.1834
  5024.00,     5.024,    96.343,    2.8903
  5027.00,     5.027,   99.2219,    2.9767
  5031.00,     5.031,   101.528,    3.0459
  5034.00,     5.034,   95.7828,    2.8735
  5041.00,     5.041,   91.7693,    2.7531
  5044.00,     5.044,   98.0994,     2.943
  5050.00,      5.05,   90.6335,     2.719
  5052.00,     5.052,   97.5364,    2.9261
  5057.00,     5.057,   85.4699,    2.5641
  5063.00,     5.063,   85.4793,    2.5644
  5069.00,     5.069,   80.8885,    2.4267
  5073.00,     5.073,    75.145,    2.2543
  5079.00,     5.079,   72.8542,    2.1856
  5084.00,     5.084,   65.3873,    1.9616
  5091.00,     5.091,   61.9477,    1.8584
  5096.00,     5.096,   53.9057,    1.6172
  5100.00,      5.10,   49.8861,    1.4966
  5102.00,     5.102,   44.7143,    1.3414
  5104.00,     5.104,   39.5425,    1.1863
  5108.00,     5.108,    34.374,    1.0312
  5111.00,     5.111,   40.1296,    1.2039
  5114.00,     5.114,   48.1836,    1.4455
  5117.00,     5.117,   49.3386,    1.4802
  5119.00,     5.119,   37.8416,    1.1352
  5122.00,     5.122,    34.397,    1.0319
  5126.00,     5.126,   32.6775,    0.9803
  5129.00,     5.129,   25.7828,    0.7735
  5134.00,     5.134,   23.4904,    0.7047
  5142.00,     5.142,   21.7769,    0.6533
  5145.00,     5.145,   24.0825,    0.7225
  5151.00,     5.151,   33.8665,     1.016
  5156.00,     5.156,   43.6493,    1.3095
  5161.00,     5.161,   49.9827,    1.4995
  5167.00,     5.167,   64.3668,     1.931
  5173.00,     5.173,   77.0264,    2.3108
  5178.00,     5.178,   87.3837,    2.6215
  5184.00,     5.184,  100.6178,    3.0185
  5189.00,     5.189,  110.4012,     3.312
  5194.00,     5.194,  129.9588,    3.8988
  5200.00,      5.20,  140.8933,    4.2268
  5206.00,     5.206,  133.4264,    4.0028
  5213.00,     5.213,  154.7123,    4.6414
  5217.00,     5.217,  181.1688,    5.4351
  5218.00,     5.218,  200.7214,    6.0216
  5221.00,     5.221,  242.7001,     7.281
  5227.00,     5.227,  246.1595,    7.3848
  5229.00,     5.229,  225.4629,    6.7639
  5235.00,     5.235,  215.6975,    6.4709
  5240.00,      5.24,  222.0309,    6.6609
  5242.00,     5.242,  233.5333,     7.006
  5247.00,     5.247,  231.8165,    6.9545
  5251.00,     5.251,  230.0981,    6.9029
  5255.00,     5.255,  214.5793,    6.4374
  5262.00,     5.262,  159.9647,    4.7989
  5267.00,     5.267,  127.1967,    3.8159
  5273.00,     5.273,  101.9072,    3.0572
  5275.00,     5.275,   92.7103,    2.7813
  5279.00,     5.279,   85.2411,    2.5572
  5283.00,     5.283,   93.8729,    2.8162
  5287.00,     5.287,    97.904,    2.9371
  5288.00,     5.288,   65.1305,    1.9539
  5297.00,     5.297,   26.0445,    0.7813
  5301.00,     5.301,   28.9262,    0.8678
  5307.00,     5.307,   35.8351,    1.0751
  5314.00,     5.314,   38.1467,    1.1444
  5318.00,     5.318,   43.3278,    1.2998
  5326.00,     5.326,   45.0655,     1.352
  5333.00,     5.333,   47.3759,    1.4213
  5339.00,     5.339,   51.9848,    1.5595
  5344.00,     5.344,   53.7181,    1.6115
  5349.00,     5.349,   56.0264,    1.6808
  5354.00,     5.354,   57.7591,    1.7328
  5359.00,     5.359,   60.6413,    1.8192
  5362.00,     5.362,   55.4711,    1.6641
  5368.00,     5.368,   53.7554,    1.6127
  5373.00,     5.373,   56.0637,    1.6819
  5378.00,     5.378,   56.0708,    1.6821
  5382.00,     5.382,    56.653,    1.6996
  5387.00,     5.387,   57.2356,    1.7171
  5392.00,     5.392,   57.2433,    1.7173
  5397.00,     5.397,   56.6765,    1.7003
  5403.00,     5.403,   57.8353,    1.7351
  5408.00,     5.408,    57.268,     1.718
  5416.00,     5.416,   56.7051,    1.7012
  5424.00,     5.424,   57.2922,    1.7188
  5428.00,     5.428,   56.7248,    1.7017
  5434.00,     5.434,   56.1591,    1.6848
  5440.00,      5.44,   56.1674,     1.685
  5444.00,     5.444,    55.025,    1.6508
  5450.00,      5.45,   56.1838,    1.6855
  5454.00,     5.454,   54.4654,     1.634
  5460.00,      5.46,   55.0492,    1.6515
  5467.00,     5.467,   55.0596,    1.6518
  5472.00,     5.472,   57.3679,     1.721
  5478.00,     5.478,   66.0018,    1.9801
  5485.00,     5.485,   59.1132,    1.7734
EndData:
