Comment: Data were digitized. Energy digitizing error is 0.06 keV,
         data digitizing error is 0.0001 mb/sr.
         
Version: R33
Source: L. Zolnai et al. Izvestiya Akademii Nauk v.44 (1980) 2281
Name: Sophiya Taova 
Address1: All-Russia Scientific Research Institute of Experimental Physics
Address2: 607190, Mira, 37, Sarov, Nizhni Novgorod reg., Russia
Address3: tel: (831-30) 2-77-79   fax:( 831-30) 4-55-69
Address4: e-mail: taova@expd.vniief.ru
Serial Number: 
SubFile: 
X4Number: F0925005
Reaction:  19F(a,a0)19F
Distribution: Energy
Composition: 
Masses:    4.000,    19.000,    4.000,    19.000
Zeds: 2,  9,  2,  9
Qvalue:       0.00,      0.00,      0.00,      0.00,      0.00
Theta:     170.0
Sigfactors:    1000.00,  0.00
Enfactors: 1000.00, 0.00, 0.00, 0.00
Units: mb
Data:                   
     2.2908        0.0  6.177E-02        0.0
     2.2996        0.0  6.177E-02        0.0
     2.3069        0.0  6.051E-02        0.0
     2.3098        0.0  6.430E-02        0.0
     2.3171        0.0  6.000E-02        0.0
     2.3245        0.0  5.950E-02        0.0
     2.3288        0.0  5.773E-02        0.0
     2.3303        0.0  5.621E-02        0.0
     2.3391        0.0  5.494E-02        0.0
     2.3435        0.0  5.317E-02        0.0
     2.3478        0.0  6.811E-02        0.0
     2.3523        0.0  5.191E-02        0.0
     2.3624        0.0  5.799E-02        0.0
     2.3698        0.0  5.596E-02        0.0
     2.3786        0.0  5.191E-02        0.0
     2.3814        0.0  6.710E-02        0.0
     2.3844        0.0  5.850E-02        0.0
     2.3931        0.0  5.698E-02        0.0
     2.3961        0.0  5.293E-02        0.0
     2.4004        0.0  6.002E-02        0.0
     2.4078        0.0  5.394E-02        0.0
     2.4107        0.0  5.673E-02        0.0
     2.4165        0.0  5.622E-02        0.0
     2.4238        0.0  5.344E-02        0.0
     2.4253        0.0  5.749E-02        0.0
     2.4311        0.0  5.952E-02        0.0
     2.4369        0.0  6.002E-02        0.0
     2.4414        0.0  5.623E-02        0.0
     2.4472        0.0  5.775E-02        0.0
     2.4501        0.0  5.395E-02        0.0
      2.456        0.0  5.724E-02        0.0
     2.4618        0.0  5.395E-02        0.0
     2.4676        0.0  5.725E-02        0.0
     2.4735        0.0  5.598E-02        0.0
     2.4808        0.0  5.649E-02        0.0
     2.4852        0.0  5.219E-02        0.0
     2.4882        0.0  4.636E-02        0.0
     2.4969        0.0  5.042E-02        0.0
     2.4998        0.0  5.320E-02        0.0
     2.5071        0.0  4.865E-02        0.0
     2.5087        0.0  3.928E-02        0.0
      2.516        0.0  3.726E-02        0.0
     2.5188        0.0  4.688E-02        0.0
     2.5232        0.0  5.042E-02        0.0
      2.532        0.0  5.042E-02        0.0
     2.5363        0.0  5.194E-02        0.0
     2.5378        0.0  5.397E-02        0.0
     2.5466        0.0  5.473E-02        0.0
     2.5495        0.0  5.194E-02        0.0
     2.5539        0.0  5.119E-02        0.0
     2.5612        0.0  4.942E-02        0.0
      2.567        0.0  5.119E-02        0.0
     2.5743        0.0  5.170E-02        0.0
     2.5802        0.0  4.942E-02        0.0
     2.5846        0.0  5.094E-02        0.0
     2.5948        0.0  5.043E-02        0.0
     2.5977        0.0  4.866E-02        0.0
      2.605        0.0  4.866E-02        0.0
     2.6094        0.0  4.765E-02        0.0
     2.6182        0.0  4.715E-02        0.0
     2.6313        0.0  4.614E-02        0.0
     2.6342        0.0  5.095E-02        0.0
     2.6371        0.0  5.373E-02        0.0
     2.6459        0.0  5.196E-02        0.0
     2.6488        0.0  5.399E-02        0.0
     2.6547        0.0  5.323E-02        0.0
      2.662        0.0  5.399E-02        0.0
     2.6664        0.0  4.893E-02        0.0
     2.6737        0.0  4.994E-02        0.0
      2.681        0.0  5.020E-02        0.0
     2.6839        0.0  5.197E-02        0.0
     2.6912        0.0  5.450E-02        0.0
     2.6941        0.0  4.843E-02        0.0
     2.7029        0.0  4.640E-02        0.0
     2.7044        0.0  4.919E-02        0.0
     2.7073        0.0  4.818E-02        0.0
     2.7146        0.0  5.020E-02        0.0
      2.719        0.0  4.894E-02        0.0
     2.7263        0.0  4.337E-02        0.0
     2.7293        0.0  3.983E-02        0.0
     2.7322        0.0  4.438E-02        0.0
     2.7351        0.0  3.755E-02        0.0
     2.7425        0.0  3.046E-02        0.0
     2.7453        0.0  3.983E-02        0.0
     2.7555        0.0  4.540E-02        0.0
     2.7614        0.0  4.565E-02        0.0
     2.7745        0.0  4.616E-02        0.0
     2.7833        0.0  4.617E-02        0.0
     2.7877        0.0  4.541E-02        0.0
     2.7935        0.0  4.591E-02        0.0
     2.7994        0.0  4.440E-02        0.0
     2.8038        0.0  3.908E-02        0.0
      2.814        0.0  4.035E-02        0.0
     2.8169        0.0  3.832E-02        0.0
     2.8315        0.0  4.111E-02        0.0
     2.8476        0.0  4.086E-02        0.0
     2.8534        0.0  4.517E-02        0.0
     2.8622        0.0  3.808E-02        0.0
     2.8666        0.0  3.631E-02        0.0
     2.8827        0.0  3.580E-02        0.0
     2.8914        0.0  4.441E-02        0.0
     2.9075        0.0  4.416E-02        0.0
     2.9163        0.0  4.163E-02        0.0
     2.9236        0.0  4.239E-02        0.0
     2.9338        0.0  4.214E-02        0.0
     2.9367        0.0  3.936E-02        0.0
     2.9484        0.0  3.885E-02        0.0
     2.9557        0.0  4.037E-02        0.0
      2.963        0.0  3.911E-02        0.0
     2.9718        0.0  3.886E-02        0.0
     2.9791        0.0  3.506E-02        0.0
     2.9864        0.0  3.633E-02        0.0
     2.9937        0.0  3.760E-02        0.0
      3.001        0.0  3.481E-02        0.0
     3.0083        0.0  3.532E-02        0.0
     3.0156        0.0  3.608E-02        0.0
     3.0229        0.0  3.634E-02        0.0
     3.0332        0.0  3.811E-02        0.0
     3.0419        0.0  3.507E-02        0.0
     3.0492        0.0  3.634E-02        0.0
     3.0536        0.0  3.356E-02        0.0
     3.0566        0.0  3.482E-02        0.0
     3.0639        0.0  3.634E-02        0.0
     3.0668        0.0  3.508E-02        0.0
     3.0741        0.0  3.761E-02        0.0
     3.0799        0.0  3.584E-02        0.0
     3.0872        0.0  3.534E-02        0.0
     3.0975        0.0  3.534E-02        0.0
     3.1048        0.0  3.534E-02        0.0
     3.1121        0.0  3.661E-02        0.0
     3.1179        0.0  3.230E-02        0.0
     3.1238        0.0  2.294E-02        0.0
     3.1355        0.0  2.243E-02        0.0
     3.1487        0.0  2.370E-02        0.0
     3.1618        0.0  2.902E-02        0.0
     3.1676        0.0  3.130E-02        0.0
     3.1807        0.0  3.561E-02        0.0
     3.1866        0.0  3.434E-02        0.0
     3.1954        0.0  3.434E-02        0.0
     3.2027        0.0  3.536E-02        0.0
     3.2129        0.0  3.485E-02        0.0
     3.2231        0.0  3.283E-02        0.0
     3.2363        0.0  3.233E-02        0.0
     3.2407        0.0  2.904E-02        0.0
     3.2436        0.0  2.777E-02        0.0
      3.248        0.0  1.992E-02        0.0
     3.2582        0.0  2.372E-02        0.0
     3.2611        0.0  2.600E-02        0.0
     3.2699        0.0  2.600E-02        0.0
     3.2802        0.0  2.423E-02        0.0
     3.2889        0.0  2.525E-02        0.0
     3.2962        0.0  2.550E-02        0.0
     3.3049        0.0  3.689E-02        0.0
     3.3107        0.0  4.500E-02        0.0
     3.3166        0.0  4.221E-02        0.0
     3.3327        0.0  4.019E-02        0.0
      3.337        0.0  3.791E-02        0.0
     3.3444        0.0  3.817E-02        0.0
     3.3531        0.0  3.741E-02        0.0
     3.3605        0.0  3.209E-02        0.0
     3.3649        0.0  2.197E-02        0.0
     3.3751        0.0  2.248E-02        0.0
     3.3883        0.0  2.071E-02        0.0
      3.397        0.0  2.223E-02        0.0
     3.4058        0.0  2.451E-02        0.0
     3.4102        0.0  2.603E-02        0.0
     3.4189        0.0  2.578E-02        0.0
     3.4292        0.0  2.477E-02        0.0
     3.4365        0.0  2.350E-02        0.0
     3.4467        0.0  2.173E-02        0.0
     3.4511        0.0  2.021E-02        0.0
     3.4599        0.0  1.920E-02        0.0
     3.4658        0.0  1.237E-02        0.0
      3.476        0.0  1.212E-02        0.0
     3.4818        0.0  1.946E-02        0.0
      3.492        0.0  2.047E-02        0.0
     3.4979        0.0  1.794E-02        0.0
     3.5081        0.0  1.643E-02        0.0
     3.5183        0.0  1.694E-02        0.0
     3.5227        0.0  1.567E-02        0.0
     3.5344        0.0  1.567E-02        0.0
     3.5432        0.0  1.795E-02        0.0
     3.5505        0.0  1.998E-02        0.0
     3.5607        0.0  1.973E-02        0.0
     3.5694        0.0  2.150E-02        0.0
     3.5797        0.0  1.922E-02        0.0
     3.5856        0.0  9.606E-03        0.0
     3.5944        0.0  3.786E-03        0.0
     3.6061        0.0  1.763E-03        0.0
     3.6132        0.0  3.366E-02        0.0
     3.6148        0.0  4.549E-03        0.0
     3.6221        0.0  1.493E-02        0.0
     3.6308        0.0  2.911E-02        0.0
      3.641        0.0  3.189E-02        0.0
     3.6498        0.0  2.784E-02        0.0
       3.66        0.0  2.607E-02        0.0
     3.6702        0.0  2.456E-02        0.0
      3.679        0.0  2.557E-02        0.0
     3.6878        0.0  2.532E-02        0.0
     3.6891        0.0  4.304E-02        0.0
     3.6964        0.0  4.304E-02        0.0
     3.6995        0.0  2.482E-02        0.0
     3.7037        0.0  4.304E-02        0.0
     3.7067        0.0  3.165E-02        0.0
     3.7125        0.0  4.001E-02        0.0
     3.7242        0.0  4.634E-02        0.0
     3.7344        0.0  4.229E-02        0.0
     3.7374        0.0  3.419E-02        0.0                                          
EndData:
