Comment: Data were digitized. Energy digitizing error is 0.002 MeV
         data digitizing error is 0.309 (relative units).
         Differetial data are given in relative units.
        

Version: R33
Source: W.A. Schier, et al. Nuclear Physics A, v.226 (1976) 16
Name: Taova Sophiya 
Address1: All-Russia Scientific Research Institute of Experimental Physics
Address2: 607190, Mira, 37, Sarov, Nizhni Novgorod reg., Russia
Address3: tel: (831-30) 2-77-79   fax:( 831-30) 4-55-69
Address4: e-mail: taova@expd.vniief.ru
Serial Number: 
SubFile: 
X4Number: F1061003
Reaction: 19F(a,p0)22Ne
Distribution: Energy
Composition: 
Masses:    4.000,   19.000,    1.000,   22.000
Zeds: 2,  9,  1,  10
Qvalue:        1675.1,      0.00,      0.00,      0.00,      0.00
Theta:     120.
Sigfactors: 1.00, 0.00 
Enfactors:  1000.00, 0.00, 0.00, 0.00
Units: ru
Data:
     2.5011         0.      2.387         0.
     2.5098         0.     2.3837         0.
     2.5141         0.     19.137         0.
      2.525         0.     22.325         0.
     2.5358         0.     36.682         0.
     2.5466         0.     26.306         0.
     2.5575         0.     31.089         0.
     2.5683         0.     15.127         0.
     2.5791         0.     21.506         0.
     2.5943         0.     20.703         0.
     2.6051         0.     31.869         0.
     2.6117         0.     47.823         0.
     2.6248         0.     87.712         0.
     2.6357         0.     114.04         0.
     2.6464         0.     84.512         0.
     2.6572         0.     71.742         0.
      2.668         0.      44.61         0.
     2.6788         0.     35.032         0.
     2.6895         0.     19.071         0.
     2.6982         0.     11.887         0.
     2.7112         0.     14.275         0.
     2.7177         0.     10.283         0.
     2.7308         0.     43.789         0.
     2.7439         0.     95.645         0.
     2.7547         0.     73.301         0.
     2.7611         0.     51.756         0.
      2.774         0.       33.4         0.
     2.7848         0.     11.056         0.
     2.7956         0.     6.2645         0.
     2.8086         0.     7.0575         0.
     2.8173         0.     19.022         0.
     2.8303         0.     32.581         0.
     2.8411         0.     21.407         0.
     2.8519         0.      11.03         0.
     2.8606         0.     19.804         0.
     2.8714         0.     17.406         0.
     2.8845         0.     27.773         0.
     2.8974         0.     28.566         0.
     2.9082         0.     14.998         0.
     2.9191         0.      16.59         0.
     2.9278         0.     24.565         0.
     2.9386         0.      17.38         0.
     2.9495         0.      42.11         0.
     2.9624         0.      25.35         0.
     2.9733         0.     34.122         0.
     2.9819         0.     26.938         0.
     2.9905         0.     14.169         0.
     3.0057         0.     35.706         0.
     3.0166         0.     44.478         0.
     3.0275         0.     70.804         0.
      3.034         0.     88.354         0.
     3.0469         0.      58.03         0.
       3.06         0.     74.781         0.
     3.0685         0.     34.884         0.
     3.0815         0.     37.273         0.
     3.0923         0.     31.684         0.
     3.1032         0.      50.03         0.
      3.114         0.     31.675         0.
      3.127         0.     38.851         0.
     3.1357         0.     51.614         0.
     3.1487         0.     51.609         0.
     3.1553         0.     86.712         0.
     3.1705         0.     100.27         0.
     3.1792         0.     106.65         0.
     3.1899         0.     73.135         0.
     3.2007         0.     50.791         0.
     3.2093         0.     40.416         0.
     3.2223         0.     26.049         0.
     3.2352         0.     13.278         0.
     3.2439         0.     19.658         0.
     3.2569         0.     30.823         0.
     3.2635         0.     46.778         0.
     3.2764         0.     46.773         0.
     3.2894         0.     29.215         0.
     3.2981         0.      41.18         0.
      3.309         0.      61.92         0.
     3.3197         0.     34.789         0.
     3.3327         0.     26.007         0.
     3.3435         0.      9.248         0.
       3.35         0.     14.831         0.
      3.363         0.     12.432         0.
     3.3738         0.      6.045         0.
     3.3868         0.     12.423         0.
     3.3954         0.     9.2283         0.
     3.4084         0.     7.6276         0.
     3.4193         0.     9.2192         0.
     3.4279         0.     5.2266         0.
     3.4409         0.     7.6153         0.
     3.4539         0.     8.4082         0.
     3.4604         0.     17.182         0.
     3.4734         0.     9.1987         0.
     3.4843         0.     23.556         0.
     3.4951         0.     29.137         0.
     3.5037         0.     20.357         0.
     3.5167         0.     17.161         0.
     3.5297         0.     27.528         0.
     3.5364         0.     95.344         0.
     3.5495         0.      108.9         0.
      3.571         0.     60.225         0.
     3.5818         0.     62.614         0.
     3.5926         0.     35.483         0.
     3.6056         0.     41.861         0.
     3.6142         0.     33.081         0.
     3.6272         0.     40.257         0.
     3.6381         0.     53.817         0.
      3.649         0.     67.376         0.
     3.6598         0.     56.202         0.
     3.6684         0.     42.635         0.
     3.6814         0.     51.407         0.
     3.6922         0.       52.2         0.
     3.7009         0.     46.612         0.
     3.7117         0.     48.204         0.
     3.7226         0.     86.497         0.
     3.7357         0.     111.23         0.
     3.7467         0.     160.69         0.
     3.7574         0.     133.56         0.
     3.7681         0.     96.054         0.
     3.7791         0.     127.17         0.
     3.7898         0.     89.663         0.
     3.8005         0.     66.521         0.
     3.8113         0.     60.932         0.
     3.8178         0.     55.344         0.
     3.8351         0.     53.742         0.
     3.8438         0.     60.919         0.
     3.8547         0.     84.053         0.
     3.8678         0.     113.57         0.
     3.8786         0.     111.97         0.
     3.8872         0.       99.2         0.
      3.898         0.     89.622         0.
     3.9088         0.     47.331         0.
     3.9195         0.     36.157         0.
     3.9282         0.     28.973         0.
     3.9412         0.     24.181         0.
      3.952         0.     19.389         0.
     3.9628         0.     16.992         0.
     3.9736         0.     20.977         0.
     3.9845         0.     28.153         0.
     3.9953         0.     25.756         0.
     4.0061         0.     28.145         0.
     4.0148         0.     39.312         0.
     4.0278         0.     38.509         0.
     4.0408         0.     42.494         0.
     4.0495         0.     45.682         0.
     4.0603         0.     37.699         0.
     4.0733         0.     27.322         0.
     4.0819         0.     25.723         0.
     4.0928         0.      44.07         0.
     4.1037         0.     71.991         0.
      4.119         0.     107.89         0.
     4.1255         0.     119.85         0.
     4.1385         0.      138.2         0.
     4.1515         0.     115.06         0.
     4.1579         0.     83.938         0.
     4.1687         0.      81.54         0.
     4.1795         0.     71.962         0.
     4.1905         0.     146.16         0.
     4.2036         0.     186.85         0.
     4.2144         0.     149.34         0.
     4.2229         0.     107.05         0.
     4.2336         0.     67.952         0.
     4.2466         0.     54.383         0.
     4.2682         0.     40.812         0.
     4.2898         0.     35.218         0.
     4.3006         0.      25.64         0.
     4.3093         0.     42.392         0.
     4.3202         0.     43.185         0.
     4.3331         0.     27.223         0.
     4.3441         0.     65.517         0.
     4.3571         0.     85.458         0.
     4.3679         0.     73.486         0.
     4.3743         0.     55.931         0.
     4.3851         0.     45.554         0.
     4.4327         0.     41.604         0.
     4.4435         0.     35.214         0.
     4.4544         0.     47.972         0.
     4.4652         0.     68.708         0.
     4.4783         0.    114.974         0.
     4.4914         0.    196.346         0.
     4.5001         0.     233.04         0.
     4.5131         0.     215.48         0.
     4.5216         0.    135.686         0.
     4.5325         0.    148.444         0.
     4.5433         0.    134.074         0.
     4.5541         0.       158.         0.
     4.5671         0.    137.246         0.
     4.5779         0.    132.452         0.
     4.5866         0.    146.806         0.
     4.5975         0.    197.862         0.
     4.6104         0.    159.554         0.
     4.6191         0.     143.59         0.
     4.6299         0.    126.028         0.
     4.6429         0.    132.402         0.
     4.6537         0.    138.776         0.
     4.6647         0.     247.28         0.
     4.6779         0.     358.96         0.
     4.6866         0.     414.82         0.
     4.6996         0.     390.86         0.
      4.708         0.     256.82         0.
     4.7189         0.      258.4         0.
     4.7296         0.     224.88         0.
     4.7427         0.      256.8         0.
     4.7513         0.      216.9         0.
     4.7622         0.     277.52         0.
     4.7751         0.     229.64         0.
     4.7817         0.     275.92         0.
     4.7947         0.     303.02         0.
     4.8055         0.     287.06         0.
     4.8164         0.     301.42         0.
     4.8272         0.     290.24         0.
      4.838         0.     326.94         0.
     4.8489         0.     314.16         0.
     4.8596         0.      255.1         0.
     4.8682         0.     212.02         0.
     4.8812         0.     196.05         0.
     4.8942         0.      247.1         0.
     4.9072         0.     258.26         0.
     4.9158         0.      202.4         0.
     4.9267         0.    199.208         0.
     4.9353         0.     205.58         0.
     4.9461         0.    136.958         0.
      4.959         0.    127.374         0.
     4.9698         0.    109.814         0.
     4.9785         0.     85.872         0.
     4.9893         0.     66.714         0.
     5.0001         0.     58.728         0.
EndData:
