Comment: Data were digitized. Energy digitizing error is 0.045 keV,
         data digitizing error is 6.679 (relative units). 
         Differential cross-sections are given in relative units. 
         
Version: R33
Source: G.Dearnaley et al. Nuclear Physics  v.36 (1962) 71
Name: Elena Kamskaya 
Address1: All-Russia Scientific Research Institute of Experimental Physics
Address2: 607190, Mira, 37, Sarov, Nizhni Novgorod reg., Russia
Address3: tel: (831-30) 2-77-79   fax:( 831-30) 4-55-69
Address4: e-mail: kamskaya@expd.vniief.ru
Serial Number: 
SubFile: 
X4Number: F1003003 
Reaction: 6Li(a,a0)6Li 
Distribution: Energy
Composition: 
Masses:    4.000,   6.000,    4.000,   6.000
Zeds: 2, 3, 2, 3
Qvalue:      0.00,      0.00,      0.00,      0.00,      0.00
Theta:  56.3
Sigfactors: 1.00, 0.00 
Enfactors: 1000.00, 0.00, 0.00, 0.00
Units: ru
Data:
     1.8811         0.  1.948E+03         0.
     1.8915         0.  2.014E+03         0.
     1.9012         0.  2.001E+03         0.
      1.911         0.  1.909E+03         0.
     1.9214         0.  1.882E+03         0.
     1.9311         0.  1.804E+03         0.
     1.9434         0.  1.817E+03         0.
     1.9538         0.  1.922E+03         0.
     1.9649         0.  1.791E+03         0.
     1.9753         0.  1.778E+03         0.
     1.9863         0.  1.818E+03         0.
     2.0006         0.  1.699E+03         0.
     2.0155         0.  1.621E+03         0.
     2.0298         0.  1.555E+03         0.
     2.0467         0.  1.397E+03         0.
     2.0636         0.  1.292E+03         0.
     2.0792         0.  1.240E+03         0.
     2.0889         0.  1.214E+03         0.
     2.0987         0.  1.227E+03         0.
     2.1052         0.  1.227E+03         0.
     2.1116         0.  1.227E+03         0.
     2.1168         0.  1.214E+03         0.
     2.1227         0.  1.214E+03         0.
     2.1318         0.  1.228E+03         0.
     2.1383         0.  1.175E+03         0.
     2.1493         0.  1.109E+03         0.
     2.1642         0.  1.267E+03         0.
     2.1792         0.  1.176E+03         0.
     2.1974         0.  1.084E+03         0.
     2.2162         0.  1.216E+03         0.
     2.2285         0.  1.268E+03         0.
     2.2389         0.  1.084E+03         0.
     2.2467         0.  1.071E+03         0.
     2.2565         0.  1.085E+03         0.
     2.2636         0.  1.085E+03         0.
     2.2733         0.     966.34         0.
     2.2844         0.     953.34         0.
     2.2941         0.     992.95         0.
     2.3032         0.  1.072E+03         0.
     2.3149         0.     966.93         0.
     2.3279         0.  1.112E+03         0.
     2.3383         0.     927.78         0.
     2.3493         0.     954.25         0.
     2.3584         0.     941.22         0.
     2.3705         0.     954.03         0.
     2.3822         0.     954.13         0.
     2.3913         0.     941.04         0.
     2.4031         0.     895.08         0.
     2.4109         0.     868.83         0.
     2.4181         0.     882.04         0.
     2.4272         0.      822.9         0.
     2.4364         0.     822.97         0.
     2.4435         0.     882.24         0.
      2.452         0.     796.78         0.
     2.4625         0.     888.97         0.
     2.4729         0.     744.31         0.
     2.4814         0.     843.07         0.
     2.4931         0.     790.53         0.
     2.5016         0.     777.44         0.
     2.5127         0.     803.84         0.
     2.5232         0.     764.45         0.
      2.531         0.     764.51         0.
     2.5395         0.     771.15         0.
     2.5493         0.     731.76         0.
     2.5584         0.     659.46         0.
     2.5669         0.     797.69         0.
     2.5767         0.     968.82         0.
     2.5871         0.  1.160E+03         0.
     2.5956         0.  1.107E+03         0.
      2.606         0.  1.022E+03         0.
     2.6158         0.     916.49         0.
     2.6269         0.     923.16         0.
     2.6386         0.     896.93         0.
     2.6458         0.     837.78         0.
     2.6563         0.     844.44         0.
     2.6661         0.     765.57         0.
     2.6785         0.     752.51         0.
     2.6909         0.     778.92         0.
     2.7046         0.     779.03         0.
     2.7176         0.     779.13         0.
     2.7235         0.     739.71         0.
     2.7287         0.     812.12         0.
     2.7339         0.     772.68         0.
     2.7424         0.     759.59         0.
     2.7483         0.     766.22         0.
     2.7542         0.     707.05         0.
     2.7594         0.     746.57         0.
     2.7646         0.     700.56         0.
     2.7705         0.     753.23         0.
     2.7731         0.     667.73         0.
     2.7783         0.     648.03         0.
     2.7848         0.     687.56         0.
     2.7874         0.     628.37         0.
     2.7927         0.     687.62         0.
     2.7985         0.     654.77         0.
     2.8044         0.     681.13         0.
     2.8096         0.     700.91         0.
     2.8142         0.     648.32         0.
EndData:
