Comment:    Automatically converted from EXFOR
            by the IAEA-NDS EXFOR Web-Retrieval System
            program version-2012/10/18, by V.Zerkin.
            "Excited levels between 11.7 and 13.0 MeV of 22Ne
             investigated by 18O+alpha reaction"
            S.Gorodetzky,  M.Port,  J.Graff,  J.M.Thirion, 
            G.Chouraqui
            EXFOR: D0272002    Created: 2006-06-24  Updated: 2006-06-27
            X4Reaction:8-O-18(A,EL)8-O-18,,DA; X4Points:927
            Data converted from C.M. to Lab. 
            LevelEnergy: 0.00

Version:      R33
X4Number:     D0272002
Source:       S.Gorodetzky+(1968), Jour. Journal de Physique, Vol.29, p.271
Reaction:     18O(a,a0)18O
Distribution: Energy
Sigfactors:   1.00, 0.00
Enfactors:    1.00, 0.00, 0.00, 0.00
Units:        mb
Composition:
Masses:       4.0, 18.0, 4.0, 18.0
Zeds:         2, 8, 2, 8
Qvalue:       -0.0, 0.00, 0.00, 0.00, 0.00
Theta:        113.5
Data:
 2490.00,     0.00, 111.6748,  16.7512
 2502.00,     0.00, 105.7631,  15.8645
 2517.00,     0.00, 101.0661,  15.1599
 2544.00,     0.00, 102.2808,  15.3421
 2555.00,     0.00,  95.2354,  14.2853
 2572.00,     0.00,  82.2782,  12.3417
 2583.00,     0.00,  80.5289,  12.0793
 2601.00,     0.00,  95.9642,  14.3946
 2612.00,     0.00,  98.3127,  14.7469
 2634.00,     0.00,  96.6121,  14.4918
 2653.00,     0.00,  94.8304,  14.2246
 2665.00,     0.00,   92.482,  13.8723
 2680.00,     0.00,  89.5666,   13.435
 2691.00,     0.00,  87.2181,  13.0827
 2711.00,     0.00,  81.3874,  12.2081
 2723.00,     0.00,  67.7904,  10.1682
 2739.00,     0.00,  62.5023,   9.3753
 2753.00,     0.00,  73.7588,  11.0638
 2764.00,     0.00,  79.1037,  11.8655
 2779.00,     0.00,  80.9015,  12.1352
 2793.00,     0.00,  83.3309,  12.4996
 2797.00,     0.00,  79.1684,  11.8753
 2809.00,     0.00,  77.4192,  11.6129
 2817.00,     0.00,   72.706,  10.9059
 2828.00,     0.00,  69.7664,  10.4654
 2848.00,     0.00,  60.9393,   9.1413
 2863.00,     0.00,   58.607,   8.7915
 2875.00,     0.00,  50.9461,   7.6419
 2894.00,     0.00,  50.3873,   7.5581
 2905.00,     0.00,  54.5498,   8.1825
 2916.00,     0.00,  56.9388,   8.5412
 2941.00,     0.00,  68.8027,  10.3204
 2952.00,     0.00,  77.1034,  11.5659
 2970.00,     0.00,  80.6828,  12.1028
 2986.00,     0.00,   80.124,  12.0186
 3012.00,     0.00,  77.8079,  11.6712
 3024.00,     0.00,  74.2852,  11.1432
 3035.00,     0.00,  71.3536,  10.7035
 3047.00,     0.00,  69.0051,  10.3504
 3058.00,     0.00,  66.0736,   9.9106
 3073.00,     0.00,  64.9236,   9.7389
 3081.00,     0.00,  60.8016,   9.1202
 3100.00,     0.00,  54.9223,   8.2383
 3108.00,     0.00,  51.3915,   7.7087
 3128.00,     0.00,  43.7467,    6.562
 3140.00,     0.00,  32.5387,   4.8808
 3163.00,     0.00,  24.9021,   3.7353
 3178.00,     0.00,  26.6999,    4.005
 3188.00,     0.00,  36.7741,   5.5161
 3206.00,     0.00,  46.8564,   7.0285
 3221.00,     0.00,  57.5218,   8.6287
 3235.00,     0.00,  65.2314,   9.7851
 3246.00,     0.00,  68.2115,  10.2321
 3265.00,     0.00,  69.4263,  10.4143
 3295.00,     0.00,  71.2565,  10.6881
 3314.00,     0.00,  70.1146,  10.5172
 3336.00,     0.00,  68.3816,  10.2572
 3352.00,     0.00,  67.2316,  10.0847
 3367.00,     0.00,  64.8993,   9.7349
 3389.00,     0.00,  62.5751,   9.3867
 3412.00,     0.00,  61.4333,    9.215
 3424.00,     0.00,  59.0929,   8.8635
 3443.00,     0.00,  56.7687,   8.5153
 3450.00,     0.00,  54.4202,    8.163
 3458.00,     0.00,  51.4724,   7.7209
 3473.00,     0.00,   48.549,   7.2823
 3497.00,     0.00,  40.3212,   6.0482
 3508.00,     0.00,  35.6161,   5.3424
 3524.00,     0.00,  29.1456,   4.3718
 3539.00,     0.00,  22.0758,   3.3114
 3562.00,     0.00,  22.1244,   3.3187
 3573.00,     0.00,  24.5053,   3.6758
 3592.00,     0.00,   28.684,   4.3026
 3610.00,     0.00,  34.0369,   5.1055
 3621.00,     0.00,  36.4259,   5.4639
 3640.00,     0.00,   35.276,   5.2914
 3655.00,     0.00,  40.0377,   6.0057
 3674.00,     0.00,  38.8878,   5.8332
 3693.00,     0.00,  37.7378,   5.6607
 3707.00,     0.00,  38.3614,   5.7542
 3723.00,     0.00,  36.0291,   5.4044
 3738.00,     0.00,  33.6887,   5.0533
 3753.00,     0.00,  31.3564,   4.7035
 3776.00,     0.00,  26.0844,   3.9127
 3788.00,     0.00,   23.736,   3.5604
 3807.00,     0.00,  17.8647,   2.6797
 3822.00,     0.00,  14.9413,   2.2412
 3841.00,     0.00,  12.0178,   1.8027
 3853.00,     0.00,   9.0862,   1.3629
 3872.00,     0.00,   7.3508,   1.1027
 3891.00,     0.00,    6.796,   1.0194
 3909.00,     0.00,   9.7908,   1.4686
 3924.00,     0.00,  12.1798,    1.827
 3942.00,     0.00,   18.715,   2.8073
 3960.00,     0.00,  29.3885,   4.4083
 3978.00,     0.00,  39.4708,   5.9206
 3997.00,     0.00,  40.6937,   6.1041
 4016.00,     0.00,  41.3172,   6.1976
 4035.00,     0.00,  42.5401,    6.381
 4061.00,     0.00,  43.1798,    6.477
 4080.00,     0.00,  40.8556,   6.1283
 4102.00,     0.00,  39.7138,   5.9571
 4121.00,     0.00,  37.9808,   5.6971
 4137.00,     0.00,  36.2315,   5.4347
 4152.00,     0.00,  36.2639,   5.4396
 4163.00,     0.00,  33.3324,   4.9999
 4175.00,     0.00,  30.3927,   4.5589
 4194.00,     0.00,  28.6597,    4.299
 4209.00,     0.00,  26.9186,   4.0378
 4224.00,     0.00,  28.1252,   4.2188
 4235.00,     0.00,  31.6965,   4.7545
 4246.00,     0.00,  34.0774,   5.1116
 4257.00,     0.00,  37.0576,   5.5586
 4273.00,     0.00,  30.5871,   4.5881
 4281.00,     0.00,  22.3269,    3.349
 4300.00,     0.00,  13.4998,    2.025
 4304.00,     0.00,  15.8645,   2.3797
 4322.00,     0.00,  17.6785,   2.6518
 4330.00,     0.00,  20.6424,   3.0964
 4337.00,     0.00,   25.388,   3.8082
 4363.00,     0.00,  24.8454,   3.7268
 4382.00,     0.00,  22.5212,   3.3782
 4390.00,     0.00,  19.5816,   2.9372
 4398.00,     0.00,  16.6419,   2.4963
 4405.00,     0.00,  13.7022,   2.0553
 4421.00,     0.00,    8.406,   1.2609
 4432.00,     0.00,   4.8849,   0.7327
 4448.00,     0.00,   3.7317,   0.5598
 4459.00,     0.00,   6.1174,   0.9176
 4466.00,     0.00,  10.8597,    1.629
 4481.00,     0.00,  13.2487,   1.9873
 4496.00,     0.00,  17.4193,   2.6129
 4506.00,     0.00,  23.3472,   3.5021
 4514.00,     0.00,  28.0928,   4.2139
 4528.00,     0.00,    34.62,    5.193
 4543.00,     0.00,  36.4259,   5.4639
 4558.00,     0.00,  34.6848,   5.2027
 4566.00,     0.00,  27.5988,   4.1398
 4575.00,     0.00,   16.982,   2.5473
 4586.00,     0.00,  11.6858,   1.7529
 4597.00,     0.00,  15.8402,    2.376
 4612.00,     0.00,  19.4196,   2.9129
 4635.00,     0.00,  18.2777,   2.7417
 4650.00,     0.00,  15.3543,   2.3031
 4661.00,     0.00,  11.8234,   1.7735
 4677.00,     0.00,   8.3088,   1.2463
 4692.00,     0.00,   5.9757,   0.8964
 4718.00,     0.00,   6.0259,   0.9039
 4734.00,     0.00,   5.4639,   0.8196
 4752.00,     0.00,   5.5003,    0.825
 4779.00,     0.00,   2.5963,   0.3894
 4801.00,     0.00,     2.64,    0.396
 4816.00,     0.00,   7.9873,   1.1981
 4823.00,     0.00,  13.3216,   1.9982
 4841.00,     0.00,  18.6746,   2.8012
 4849.00,     0.00,   22.829,   3.4243
 4867.00,     0.00,  28.1819,   4.2273
 4882.00,     0.00,  29.9878,   4.4982
 4897.00,     0.00,  30.6033,   4.5905
 4920.00,     0.00,  30.0607,   4.5091
 4924.00,     0.00,  25.9306,   3.8896
 4935.00,     0.00,  23.5821,   3.5373
 4949.00,     0.00,  37.2033,   5.5805
 4962.00,     0.00,   62.648,   9.3972
 4977.00,     0.00,  69.7664,  10.4654
 4985.00,     0.00,   64.462,   9.6693
 5000.00,     0.00,  60.3562,   9.0538
 5024.00,     0.00,  43.2608,   6.4891
 5039.00,     0.00,  40.9285,   6.1393
EndData:

