Comment:    Automatically converted from EXFOR
            by the IAEA-NDS EXFOR Web-Retrieval System
            program version-2012/10/18, by V.Zerkin.
            "Investigation of the a-cluster structure of
             22Ne and 22Mg"
            V.Z.Goldberg, G.V.Rogachev, W.H.Trzaska, J.J.Kolata, 
            A.Andreyev, C.Angulo, M.J.G.Borge, S.Cherubini, 
            G.Chubarian, G.Crowley, P.Van Duppen, M.Gorska, 
            M.Gulino, M.Huyse, P.Jesinger, K.-M.Kallman, 
            M.Lattuada, T.Lonnroth, M.Mutterer, R.Raabe, 
            S.Romano, M.V.Rozhkov, B.B.Skorodumov, C.Spitaleri, 
            O.Tengblad, A.Tumino
            EXFOR: D0352003    Created: 2005-05-19  Updated: 2005-05-22
            X4Reaction:8-O-18(A,EL)8-O-18,,DA; X4Points:1183
            Data converted from C.M. to Lab. 
            LevelEnergy: 0.00
            Theta groupping interval=3.0 deg.

Version:      R33
X4Number:     D0352003
Source:       V.Z.Goldberg+(2004), Jour. Physical Review, Part C, Nuclear Physics, Vol.69, p.024602
Reaction:     18O(a,a0)18O
Distribution: Energy
Sigfactors:   1.00, 0.00
Enfactors:    1.00, 0.00, 0.00, 0.00
Units:        mb
Composition:
Masses:       4.0, 18.0, 4.0, 18.0
Zeds:         2, 8, 2, 8
Qvalue:       -0.0, 0.00, 0.00, 0.00, 0.00
Theta:        152.1
Data:
 2610.00,     0.00,  59.5868,   3.0235
 2617.00,     0.00,  58.3954,   2.9723
 2625.00,     0.00,  56.0508,   2.8954
 2632.00,     0.00,  50.3689,   2.7289
 2640.00,     0.00,  50.3689,   2.7097
 2647.00,     0.00,  52.0984,   2.7417
 2655.00,     0.00,  54.2316,   2.7801
 2663.00,     0.00,  42.6307,   2.4534
 2671.00,     0.00,  50.8301,   2.6648
 2679.00,     0.00,  49.1838,   2.6072
 2687.00,     0.00,  44.4307,   2.4662
 2695.00,     0.00,  45.4748,    2.479
 2704.00,     0.00,  46.2243,   2.4919
 2712.00,     0.00,  42.0541,   2.3637
 2720.00,     0.00,  42.4385,   2.3637
 2729.00,     0.00,  42.0541,   2.3381
 2738.00,     0.00,  41.4264,   2.3125
 2746.00,     0.00,  43.7517,   2.3637
 2755.00,     0.00,  43.2456,   2.3445
 2764.00,     0.00,  39.6712,   2.2356
 2773.00,     0.00,  44.4179,   2.3573
 2782.00,     0.00,  42.5154,   2.2997
 2791.00,     0.00,  45.8336,   2.3766
 2800.00,     0.00,   42.573,   2.2869
 2810.00,     0.00,  42.7652,   2.2805
 2819.00,     0.00,  40.9011,   2.2228
 2828.00,     0.00,  38.9409,   2.1652
 2838.00,     0.00,  39.1907,   2.1652
 2847.00,     0.00,  43.2392,   2.2677
 2857.00,     0.00,  45.3531,   2.3125
 2866.00,     0.00,  43.9182,   2.2741
 2876.00,     0.00,  44.1488,   2.2677
 2886.00,     0.00,  46.4677,   2.3253
 2895.00,     0.00,  50.1447,   2.4086
 2905.00,     0.00,  50.0998,   2.4022
 2915.00,     0.00,  47.5439,   2.3317
 2925.00,     0.00,  53.4309,   2.4662
 2935.00,     0.00,  48.2934,   2.3381
 2945.00,     0.00,  50.3625,    2.383
 2955.00,     0.00,  50.8493,   2.3894
 2965.00,     0.00,  54.3469,   2.4662
 2976.00,     0.00,  53.1618,   2.4342
 2986.00,     0.00,   54.507,   2.4534
 2996.00,     0.00,  45.0649,   2.2228
 3007.00,     0.00,  46.5638,   2.2548
 3017.00,     0.00,    43.63,    2.178
 3028.00,     0.00,  42.7716,   2.1524
 3038.00,     0.00,  36.3273,   1.9794
 3049.00,     0.00,  39.9979,   2.0691
 3059.00,     0.00,  37.7622,    2.005
 3070.00,     0.00,  36.7245,    1.973
 3081.00,     0.00,  39.1907,    2.037
 3092.00,     0.00,  39.5431,    2.037
 3103.00,     0.00,  37.1729,    1.973
 3114.00,     0.00,  34.2775,   1.8897
 3125.00,     0.00,  35.5458,   1.9217
 3136.00,     0.00,  37.2113,   1.9602
 3147.00,     0.00,  37.1537,   1.9538
 3158.00,     0.00,  36.8398,    1.941
 3169.00,     0.00,  47.9475,     2.21
 3180.00,     0.00,  46.3652,   2.1716
 3192.00,     0.00,  46.2948,   2.1652
 3203.00,     0.00,  48.7482,   2.2164
 3214.00,     0.00,  55.4999,   2.3637
 3226.00,     0.00,  53.2707,   2.3125
 3237.00,     0.00,  52.9568,   2.2997
 3249.00,     0.00,  56.1085,   2.3637
 3261.00,     0.00,  53.3924,   2.2997
 3272.00,     0.00,  56.5121,   2.3573
 3284.00,     0.00,  55.5063,   2.3317
 3296.00,     0.00,  56.3775,   2.3445
 3319.00,     0.00,  49.2735,   2.1844
 3331.00,     0.00,  48.4984,   2.1652
 3343.00,     0.00,  47.3517,   2.1331
 3355.00,     0.00,  40.7986,   1.9794
 3367.00,     0.00,  39.6584,   1.9474
 3379.00,     0.00,  39.8634,   1.9538
 3391.00,     0.00,  37.5637,   1.8897
 3403.00,     0.00,  32.9899,    1.768
 3416.00,     0.00,  33.6497,   1.7872
 3428.00,     0.00,  31.4461,   1.7232
 3440.00,     0.00,  31.9842,    1.736
 3452.00,     0.00,  28.2304,   1.6271
 3465.00,     0.00,  28.4418,   1.6335
 3477.00,     0.00,  23.8937,   1.4926
 3489.00,     0.00,  23.7399,   1.4861
 3502.00,     0.00,  23.3107,   1.4733
 3514.00,     0.00,  25.4759,   1.5374
 3527.00,     0.00,   21.421,   1.4093
 3540.00,     0.00,  24.9378,   1.5118
 3552.00,     0.00,  23.3171,   1.4605
 3565.00,     0.00,  25.0339,   1.5118
 3578.00,     0.00,  24.7264,   1.5054
 3590.00,     0.00,  24.9506,   1.5118
 3603.00,     0.00,  28.3585,   1.6079
 3616.00,     0.00,  29.7486,   1.6463
 3629.00,     0.00,  29.4795,   1.6335
 3641.00,     0.00,  30.0304,   1.6463
 3654.00,     0.00,   33.938,   1.7488
 3667.00,     0.00,  32.7977,   1.7168
 3680.00,     0.00,  29.9408,   1.6399
 3693.00,     0.00,  28.5763,   1.6015
 3706.00,     0.00,  26.7763,   1.5438
 3719.00,     0.00,  29.0119,   1.6079
 3732.00,     0.00,  27.4233,    1.563
 3746.00,     0.00,  25.7642,   1.5118
 3759.00,     0.00,  25.6489,   1.5054
 3772.00,     0.00,  24.6431,   1.4733
 3785.00,     0.00,  21.7029,   1.3837
 3798.00,     0.00,  22.6381,   1.4093
 3812.00,     0.00,  23.4901,   1.4349
 3825.00,     0.00,  22.9584,   1.4221
 3838.00,     0.00,   24.009,   1.4541
 3852.00,     0.00,   32.407,   1.6847
 3865.00,     0.00,  32.8042,   1.6975
 3879.00,     0.00,  38.7744,   1.8449
 3892.00,     0.00,  38.9153,   1.8449
 3906.00,     0.00,  44.8022,    1.973
 3919.00,     0.00,   47.909,    2.037
 3933.00,     0.00,  51.2593,   2.1075
 3946.00,     0.00,  55.3014,   2.1844
 3960.00,     0.00,  59.9392,   2.2741
 3973.00,     0.00,  57.0117,   2.2164
 3987.00,     0.00,  57.1462,   2.2164
 4001.00,     0.00,  58.9206,   2.2484
 4014.00,     0.00,  56.1533,   2.1972
 4028.00,     0.00,  59.9199,   2.2677
 4042.00,     0.00,  55.5704,   2.1844
 4056.00,     0.00,  54.4814,   2.1652
 4070.00,     0.00,  53.0785,   2.1331
 4083.00,     0.00,  49.3888,   2.0499
 4097.00,     0.00,   51.618,   2.0947
 4111.00,     0.00,  52.7134,   2.1139
 4125.00,     0.00,  48.3639,   2.0306
 4139.00,     0.00,  47.6272,   2.0114
 4153.00,     0.00,  54.0458,   2.1459
 4167.00,     0.00,  60.6438,   2.2741
 4181.00,     0.00,  67.1329,   2.3894
 4195.00,     0.00,  67.8375,   2.3958
 4209.00,     0.00,  73.5387,   2.4983
 4223.00,     0.00,  82.3147,   2.6392
 4237.00,     0.00,  88.5283,   2.7353
 4251.00,     0.00,  98.0729,   2.8762
 4265.00,     0.00, 103.0054,   2.9467
 4280.00,     0.00,  104.799,   2.9723
 4294.00,     0.00, 109.8596,   3.0428
 4308.00,     0.00, 110.1799,   3.0428
 4322.00,     0.00, 105.1834,   2.9723
 4336.00,     0.00, 110.1159,   3.0364
 4351.00,     0.00, 100.7634,   2.9018
 4365.00,     0.00,  93.1405,   2.7929
 4379.00,     0.00,  93.2686,   2.7993
 4394.00,     0.00,   85.966,    2.684
 4408.00,     0.00,  81.0975,   2.6072
 4422.00,     0.00,  79.8164,   2.5815
 4437.00,     0.00,  76.6135,   2.5239
 4451.00,     0.00,   81.546,   2.6072
 4465.00,     0.00,  80.7773,   2.5944
 4480.00,     0.00,  77.7025,   2.5495
 4494.00,     0.00,  84.3645,   2.6584
 4509.00,     0.00,  92.4358,   2.7801
 4523.00,     0.00,  87.8236,   2.7033
 4538.00,     0.00,  89.4251,   2.7289
 4552.00,     0.00,  94.7419,   2.8057
 4567.00,     0.00,  94.3576,   2.7993
 4582.00,     0.00,  91.6671,   2.7609
 4596.00,     0.00,  84.1723,   2.6456
 4611.00,     0.00,  81.2257,   2.5944
 4625.00,     0.00,  75.5245,   2.5047
 4640.00,     0.00,   61.784,   2.2613
 4655.00,     0.00,  62.2709,   2.2741
 4669.00,     0.00,  57.8765,   2.1908
 4684.00,     0.00,  57.6715,   2.1844
EndData:

