Comment:    Automatically converted from EXFOR
            by the IAEA-NDS EXFOR Web-Retrieval System
            program version-2012/10/18, by V.Zerkin.
            "Investigation of the a-cluster structure of
             22Ne and 22Mg"
            V.Z.Goldberg, G.V.Rogachev, W.H.Trzaska, J.J.Kolata, 
            A.Andreyev, C.Angulo, M.J.G.Borge, S.Cherubini, 
            G.Chubarian, G.Crowley, P.Van Duppen, M.Gorska, 
            M.Gulino, M.Huyse, P.Jesinger, K.-M.Kallman, 
            M.Lattuada, T.Lonnroth, M.Mutterer, R.Raabe, 
            S.Romano, M.V.Rozhkov, B.B.Skorodumov, C.Spitaleri, 
            O.Tengblad, A.Tumino
            EXFOR: D0352003    Created: 2005-05-19  Updated: 2005-05-22
            X4Reaction:8-O-18(A,EL)8-O-18,,DA; X4Points:1183
            Data converted from C.M. to Lab. 
            LevelEnergy: 0.00
            Theta groupping interval=3.0 deg.

Version:      R33
X4Number:     D0352003
Source:       V.Z.Goldberg+(2004), Jour. Physical Review, Part C, Nuclear Physics, Vol.69, p.024602
Reaction:     18O(a,a0)18O
Distribution: Energy
Sigfactors:   1.00, 0.00
Enfactors:    1.00, 0.00, 0.00, 0.00
Units:        mb
Composition:
Masses:       4.0, 18.0, 4.0, 18.0
Zeds:         2, 8, 2, 8
Qvalue:       -0.0, 0.00, 0.00, 0.00, 0.00
Theta:        145.8
Data:
 2611.00,     0.00,   51.314,   3.1285
 2617.00,     0.00,  62.4054,   3.4315
 2624.00,     0.00,  65.4812,   3.4908
 2631.00,     0.00,  62.7874,    3.392
 2638.00,     0.00,  59.6128,   3.2866
 2645.00,     0.00,  55.9903,    3.168
 2652.00,     0.00,  60.4098,   3.2668
 2660.00,     0.00,  57.3866,   3.1614
 2667.00,     0.00,  51.8541,   2.9902
 2675.00,     0.00,  53.9486,   3.0297
 2682.00,     0.00,  50.2734,   2.9046
 2690.00,     0.00,  50.3524,   2.8914
 2697.00,     0.00,  53.5534,   2.9638
 2705.00,     0.00,  48.0802,   2.7926
 2713.00,     0.00,  45.9396,   2.7136
 2721.00,     0.00,  50.3656,   2.8255
 2729.00,     0.00,  48.6136,   2.7663
 2738.00,     0.00,  46.2755,   2.6872
 2746.00,     0.00,  47.9945,   2.7202
 2754.00,     0.00,  47.3886,   2.6938
 2763.00,     0.00,  44.6553,   2.6016
 2771.00,     0.00,  41.5136,   2.4962
 2780.00,     0.00,  42.2908,   2.5028
 2789.00,     0.00,  43.2063,   2.5226
 2797.00,     0.00,  42.9823,   2.5028
 2806.00,     0.00,  39.9197,    2.404
 2815.00,     0.00,  44.8002,   2.5357
 2824.00,     0.00,  43.1931,    2.483
 2833.00,     0.00,  42.9165,   2.4633
 2843.00,     0.00,  46.4665,   2.5555
 2852.00,     0.00,  51.0967,    2.674
 2861.00,     0.00,  46.4863,   2.5423
 2870.00,     0.00,  48.1394,   2.5818
 2880.00,     0.00,  46.3348,   2.5226
 2889.00,     0.00,  50.8332,   2.6345
 2899.00,     0.00,  45.4983,    2.483
 2908.00,     0.00,  51.5116,   2.6345
 2918.00,     0.00,  46.3216,   2.4896
 2928.00,     0.00,  49.7201,   2.5687
 2938.00,     0.00,  49.2789,   2.5489
 2948.00,     0.00,  49.9507,   2.5621
 2957.00,     0.00,  47.8694,   2.5028
 2967.00,     0.00,  49.1867,   2.5291
 2977.00,     0.00,  50.8859,   2.5687
 2988.00,     0.00,  48.8244,   2.5094
 2998.00,     0.00,  44.9912,    2.404
 3008.00,     0.00,  49.3711,   2.5094
 3018.00,     0.00,  40.8879,   2.2789
 3028.00,     0.00,    48.91,    2.483
 3039.00,     0.00,  45.4127,   2.3908
 3049.00,     0.00,  41.9351,    2.292
 3060.00,     0.00,  41.3489,   2.2723
 3070.00,     0.00,  40.5322,   2.2393
 3081.00,     0.00,   38.642,   2.1867
 3091.00,     0.00,  38.0097,   2.1603
 3102.00,     0.00,  40.8154,   2.2393
 3113.00,     0.00,    38.53,   2.1669
 3124.00,     0.00,  37.0678,   2.1208
 3134.00,     0.00,  41.7639,   2.2393
 3145.00,     0.00,  37.9306,   2.1274
 3156.00,     0.00,  41.9351,   2.2328
 3167.00,     0.00,  41.6321,   2.2196
 3178.00,     0.00,   41.204,   2.2064
 3190.00,     0.00,  43.9374,   2.2723
 3201.00,     0.00,  43.7266,   2.2591
 3212.00,     0.00,  44.9187,   2.2855
 3223.00,     0.00,  47.1647,   2.3381
 3235.00,     0.00,  46.7431,    2.325
 3246.00,     0.00,  54.0276,   2.4896
 3257.00,     0.00,  54.4162,   2.4962
 3269.00,     0.00,  54.2252,   2.4896
 3280.00,     0.00,  59.1583,    2.595
 3292.00,     0.00,  52.5852,   2.4435
 3304.00,     0.00,  53.4085,   2.4567
EndData:

