Comment:    Automatically converted from EXFOR
            by the IAEA-NDS EXFOR Web-Retrieval System
            program version-2012/10/18, by V.Zerkin.
            "Excited levels between 11.7 and 13.0 MeV of 22Ne
             investigated by 18O+alpha reaction"
            S.Gorodetzky,  M.Port,  J.Graff,  J.M.Thirion, 
            G.Chouraqui
            EXFOR: D0272002    Created: 2006-06-24  Updated: 2006-06-27
            X4Reaction:8-O-18(A,EL)8-O-18,,DA; X4Points:927
            Data converted from C.M. to Lab. 
            LevelEnergy: 0.00

Version:      R33
X4Number:     D0272002
Source:       S.Gorodetzky+(1968), Jour. Journal de Physique, Vol.29, p.271
Reaction:     18O(a,a0)18O
Distribution: Energy
Sigfactors:   1.00, 0.00
Enfactors:    1.00, 0.00, 0.00, 0.00
Units:        mb
Composition:
Masses:       4.0, 18.0, 4.0, 18.0
Zeds:         2, 8, 2, 8
Qvalue:       -0.0, 0.00, 0.00, 0.00, 0.00
Theta:        141.4
Data:
 2417.00,     0.00,  81.2198,   12.183
 2432.00,     0.00,  80.7484,  12.1123
 2451.00,     0.00,   80.277,  12.0415
 2463.00,     0.00,  73.0709,  10.9606
 2479.00,     0.00,  64.8883,   9.7336
 2493.00,     0.00,  69.7709,  10.4656
 2505.00,     0.00,  67.8179,  10.1727
 2517.00,     0.00,   64.464,   9.6696
 2532.00,     0.00,  59.6622,    8.949
 2549.00,     0.00,  41.8289,   6.2743
 2555.00,     0.00,  52.9411,   7.9415
 2572.00,     0.00,  71.7913,  10.7687
 2587.00,     0.00,   75.226,  11.2839
 2606.00,     0.00,  75.6974,  11.3546
 2614.00,     0.00,  70.4444,  10.5667
 2621.00,     0.00,  75.7648,  11.3647
 2643.00,     0.00,  75.7648,  11.3647
 2651.00,     0.00,  70.9832,  10.6475
 2667.00,     0.00,  66.6393,   9.9956
 2678.00,     0.00,  62.3157,   9.3477
 2694.00,     0.00,  53.6482,   8.0472
 2714.00,     0.00,  43.0613,   6.4592
 2724.00,     0.00,  57.0761,   8.5618
 2734.00,     0.00,  67.7506,  10.1626
 2753.00,     0.00,  69.7036,  10.4555
 2765.00,     0.00,  64.3832,   9.6575
 2784.00,     0.00,  63.4471,   9.5174
 2795.00,     0.00,  60.5714,   9.0857
 2807.00,     0.00,  58.6588,   8.7988
 2822.00,     0.00,  53.3721,   8.0061
 2826.00,     0.00,  50.4829,   7.5724
 2838.00,     0.00,  49.0552,   7.3583
 2849.00,     0.00,  45.2097,   6.7811
 2861.00,     0.00,   44.745,   6.7117
 2890.00,     0.00,  54.9345,   8.2405
 2908.00,     0.00,  63.6492,   9.5477
 2919.00,     0.00,  68.0199,   10.203
 2934.00,     0.00,  69.5016,  10.4252
 2941.00,     0.00,  71.4546,  10.7182
 2952.00,     0.00,  73.8791,  11.0819
 2967.00,     0.00,  74.3505,  11.1526
 2979.00,     0.00,  67.1444,  10.0717
 2998.00,     0.00,  62.3494,   9.3524
 3013.00,     0.00,  59.4737,   8.9207
 3032.00,     0.00,  59.9922,   8.9988
 3040.00,     0.00,  57.1031,   8.5658
 3059.00,     0.00,  51.8298,   7.7745
 3075.00,     0.00,  45.5734,   6.8363
 3087.00,     0.00,  39.8018,   5.9703
 3099.00,     0.00,  34.5083,   5.1762
 3114.00,     0.00,  28.2586,   4.2388
 3126.00,     0.00,   24.898,   3.7347
 3148.00,     0.00,  24.4535,    3.668
 3163.00,     0.00,  32.6832,   4.9025
 3181.00,     0.00,  41.8828,   6.2824
 3191.00,     0.00,  55.4194,   8.3126
 3212.00,     0.00,  66.5585,   9.9841
 3223.00,     0.00,  71.3873,  10.7081
 3234.00,     0.00,  73.8117,  11.0718
 3253.00,     0.00,  72.3975,  10.8596
 3260.00,     0.00,  73.4077,  11.0111
 3283.00,     0.00,  70.5118,  10.5768
 3299.00,     0.00,  59.4535,    8.918
 3311.00,     0.00,  54.1668,   8.1247
 3330.00,     0.00,  48.8868,   7.3334
 3365.00,     0.00,  45.5599,   6.8343
 3392.00,     0.00,  37.8824,   5.6824
 3406.00,     0.00,  39.8354,   5.9753
 3421.00,     0.00,  41.3103,   6.1965
 3444.00,     0.00,  36.5153,   5.4773
 3460.00,     0.00,  30.7504,   4.6126
 3479.00,     0.00,  27.4033,   4.1105
 3487.00,     0.00,  18.7291,   2.8094
 3503.00,     0.00,  13.9205,   2.0881
 3518.00,     0.00,  13.9475,   2.0921
 3536.00,     0.00,  17.8401,    2.676
 3551.00,     0.00,  25.1068,    3.766
 3565.00,     0.00,  32.3667,    4.855
 3580.00,     0.00,  32.3937,    4.859
 3603.00,     0.00,  28.5684,   4.2853
 3618.00,     0.00,  31.0063,   4.6509
 3632.00,     0.00,  36.3402,    5.451
 3647.00,     0.00,  38.2932,    5.744
 3666.00,     0.00,  36.8789,   5.5318
 3685.00,     0.00,  36.9059,   5.5359
 3701.00,     0.00,  31.6259,   4.7439
 3720.00,     0.00,   27.309,   4.0963
 3731.00,     0.00,  22.9854,   3.4478
 3743.00,     0.00,  18.1768,   2.7265
 3759.00,     0.00,  13.3683,   2.0052
 3774.00,     0.00,  10.9842,   1.6476
 3797.00,     0.00,   9.5699,   1.4355
 3820.00,     0.00,   5.7467,    0.862
 3845.00,     0.00,  10.1356,   1.5203
 3863.00,     0.00,  24.1639,   3.6246
 3880.00,     0.00,  38.1922,   5.7288
 3898.00,     0.00,  50.2876,   7.5428
 3916.00,     0.00,  55.1433,   8.2715
 3931.00,     0.00,  57.5812,   8.6372
 3950.00,     0.00,  52.7862,   7.9179
 3969.00,     0.00,  54.7459,   8.2122
 3976.00,     0.00,  56.2074,   8.4311
 4002.00,     0.00,  58.6655,   8.8002
 4018.00,     0.00,  56.7596,   8.5139
 4033.00,     0.00,  55.3319,   8.2998
 4055.00,     0.00,  56.8135,    8.522
 4067.00,     0.00,   50.557,   7.5839
 4087.00,     0.00,  44.7989,   6.7198
 4107.00,     0.00,  29.3833,   4.4075
 4123.00,     0.00,  15.8938,   2.3841
 4133.00,     0.00,  26.5278,   3.9792
 4159.00,     0.00,  37.1887,   5.5783
 4173.00,     0.00,  42.5226,   6.3784
 4191.00,     0.00,   49.796,   7.4694
 4205.00,     0.00,  59.9586,   8.9941
 4206.00,     0.00,  56.5778,    8.487
 4216.00,     0.00,  65.2857,   9.7929
 4230.00,     0.00,  72.5321,  10.8798
 4249.00,     0.00,  76.9097,  11.5365
 4260.00,     0.00,  81.2872,  12.1931
 4266.00,     0.00,  90.9851,  13.6478
 4273.00,     0.00,  97.7197,   14.658
 4293.00,     0.00,  84.2504,  12.6376
 4302.00,     0.00,  72.1954,  10.8293
 4310.00,     0.00,  64.9557,   9.7437
 4325.00,     0.00,  64.4977,   9.6743
 4337.00,     0.00,  62.5851,   9.3874
 4348.00,     0.00,  56.8067,   8.5213
 4360.00,     0.00,  49.5872,   7.4377
 4372.00,     0.00,  43.3307,   6.4996
 4385.00,     0.00,  32.7304,   4.9096
 4393.00,     0.00,   29.848,   4.4772
 4415.00,     0.00,  29.8816,   4.4822
 4426.00,     0.00,  32.7977,   4.9197
 4444.00,     0.00,  38.1383,   5.7207
 4456.00,     0.00,  40.0846,   6.0127
 4463.00,     0.00,  42.5091,   6.3764
 4482.00,     0.00,  43.5058,   6.5259
 4496.00,     0.00,  44.4958,   6.6744
 4499.00,     0.00,  54.6382,   8.1954
 4514.00,     0.00,    61.42,    9.213
 4520.00,     0.00,  69.1648,  10.3747
 4535.00,     0.00,  73.0709,  10.9606
 4541.00,     0.00,   87.079,  13.0618
 4560.00,     0.00,   87.079,  13.0618
 4567.00,     0.00,  92.8708,  13.9306
 4579.00,     0.00,  82.2974,  12.3446
 4598.00,     0.00,  78.9301,  11.8395
 4611.00,     0.00,  63.0296,   9.4541
 4624.00,     0.00,  46.6374,   6.9953
 4637.00,     0.00,  27.3427,   4.1014
 4646.00,     0.00,  16.2574,   2.4386
 4658.00,     0.00,   10.001,   1.5001
 4669.00,     0.00,   9.0514,   1.3577
 4680.00,     0.00,  10.0346,   1.5052
 4695.00,     0.00,  17.7795,   2.6669
 4706.00,     0.00,  12.4928,   1.8739
 4717.00,     0.00,  18.7829,   2.8174
 4728.00,     0.00,  21.2141,   3.1821
 4739.00,     0.00,  26.5412,   3.9812
 4757.00,     0.00,  33.8147,   5.0722
 4775.00,     0.00,  41.0881,   6.1632
 4789.00,     0.00,  55.5878,   8.3382
 4800.00,     0.00,  58.5039,   8.7759
 4814.00,     0.00,  60.9418,   9.1409
 4825.00,     0.00,  69.6363,  10.4454
 4839.00,     0.00,   80.277,  12.0415
 4854.00,     0.00,  80.3443,  12.0517
 4865.00,     0.00,  83.7117,  12.5567
 4880.00,     0.00,  85.6647,  12.8497
 4891.00,     0.00,  85.6647,  12.8497
 4898.00,     0.00,  92.4667,    13.87
 4909.00,     0.00,  93.9483,  14.0922
 4924.00,     0.00,  95.3626,  14.3044
 4941.00,     0.00,  69.8383,  10.4757
 4951.00,     0.00,  44.7517,   6.7128
 4960.00,     0.00,  35.1077,   5.2662
 4979.00,     0.00,  29.8278,   4.4742
 4991.00,     0.00,  25.0192,   3.7529
 5002.00,     0.00,  23.1066,    3.466
 5016.00,     0.00,  32.3061,   4.8459
 5028.00,     0.00,  28.4606,   4.2691
 5039.00,     0.00,  31.3767,   4.7065
 5050.00,     0.00,  34.2861,   5.1429
EndData:

