Comment:    Automatically converted from EXFOR
            by the IAEA-NDS EXFOR Web-Retrieval System
            program version-2012/10/18, by V.Zerkin.
            "Excited levels between 11.7 and 13.0 MeV of 22Ne
             investigated by 18O+alpha reaction"
            S.Gorodetzky,  M.Port,  J.Graff,  J.M.Thirion, 
            G.Chouraqui
            EXFOR: D0272002    Created: 2006-06-24  Updated: 2006-06-27
            X4Reaction:8-O-18(A,EL)8-O-18,,DA; X4Points:927
            Data converted from C.M. to Lab. 
            LevelEnergy: 0.00

Version:      R33
X4Number:     D0272002
Source:       S.Gorodetzky+(1968), Jour. Journal de Physique, Vol.29, p.271
Reaction:     18O(a,a0)18O
Distribution: Energy
Sigfactors:   1.00, 0.00
Enfactors:    1.00, 0.00, 0.00, 0.00
Units:        mb
Composition:
Masses:       4.0, 18.0, 4.0, 18.0
Zeds:         2, 8, 2, 8
Qvalue:       -0.0, 0.00, 0.00, 0.00, 0.00
Theta:        131.2
Data:
 2419.00,     0.00,  81.2856,  12.1928
 2434.00,     0.00,  83.8593,  12.5789
 2453.00,     0.00,  79.7843,  11.9676
 2464.00,     0.00,  77.7826,  11.6674
 2476.00,     0.00,  76.2098,  11.4315
 2495.00,     0.00,  71.1124,  10.6672
 2510.00,     0.00,  67.0231,  10.0538
 2525.00,     0.00,   68.074,  10.2111
 2533.00,     0.00,  61.9115,   9.2867
 2549.00,     0.00,  60.3959,   9.0594
 2561.00,     0.00,   47.556,   7.1334
 2569.00,     0.00,  43.9672,   6.5951
 2586.00,     0.00,  61.9973,   9.2996
 2596.00,     0.00,  72.2777,  10.8417
 2616.00,     0.00,  67.1875,  10.0781
 2619.00,     0.00,  68.7318,  10.3098
 2631.00,     0.00,  66.1795,   9.9273
 2642.00,     0.00,   64.142,   9.6213
 2657.00,     0.00,  65.1929,   9.7793
 2661.00,     0.00,  60.0527,   9.0079
 2673.00,     0.00,   62.126,   9.3189
 2680.00,     0.00,  59.5666,    8.935
 2700.00,     0.00,  53.4255,   8.0142
 2716.00,     0.00,  44.1959,   6.6294
 2720.00,     0.00,  40.5999,     6.09
 2724.00,     0.00,  35.9744,   5.3962
 2738.00,     0.00,  45.7687,   6.8653
 2752.00,     0.00,  58.1367,   8.7205
 2771.00,     0.00,  55.5917,   8.3387
 2786.00,     0.00,  53.5613,   8.0342
 2802.00,     0.00,  51.5238,   7.7289
 2813.00,     0.00,  48.9716,   7.3457
 2824.00,     0.00,  49.5077,   7.4258
 2840.00,     0.00,  42.8448,   6.4267
 2855.00,     0.00,  36.1818,   5.4273
 2871.00,     0.00,  33.6295,   5.0444
 2878.00,     0.00,  35.7028,   5.3554
 2900.00,     0.00,   42.423,   6.3634
 2911.00,     0.00,  45.5257,   6.8289
 2926.00,     0.00,  52.2316,   7.8347
 2936.00,     0.00,  60.4817,   9.0722
 2955.00,     0.00,   61.025,   9.1537
 2966.00,     0.00,  62.5835,   9.3875
 2982.00,     0.00,  57.9795,   8.6969
 2993.00,     0.00,  56.9643,   8.5446
 3020.00,     0.00,   51.867,   7.7804
 3024.00,     0.00,  49.3004,   7.3951
 3043.00,     0.00,  47.7848,   7.1677
 3054.00,     0.00,  45.7473,   6.8621
 3073.00,     0.00,  40.1209,   6.0181
 3085.00,     0.00,  36.0245,   5.4037
 3097.00,     0.00,  30.8986,   4.6348
 3116.00,     0.00,  26.2945,   3.9442
 3132.00,     0.00,  18.6092,   2.7914
 3139.00,     0.00,  16.5645,   2.4847
 3162.00,     0.00,  19.1668,    2.875
 3180.00,     0.00,  23.8281,   3.5742
 3194.00,     0.00,  37.2184,   5.5828
 3204.00,     0.00,  49.0645,   7.3593
 3219.00,     0.00,  56.2851,   8.4431
 3241.00,     0.00,  61.4611,   9.2195
 3256.00,     0.00,  64.0562,   9.6084
 3271.00,     0.00,  59.4522,   8.9178
 3287.00,     0.00,  57.9366,   8.6905
 3302.00,     0.00,  55.8991,   8.3852
 3317.00,     0.00,  54.3835,   8.1572
 3329.00,     0.00,  45.6544,   6.8482
 3341.00,     0.00,  41.0432,   6.1565
 3356.00,     0.00,  39.0128,   5.8519
 3371.00,     0.00,   41.608,   6.2412
 3382.00,     0.00,  39.5633,   5.9345
 3405.00,     0.00,   39.599,   5.9399
 3420.00,     0.00,   37.054,   5.5581
 3431.00,     0.00,   35.524,   5.3286
 3454.00,     0.00,  30.9343,   4.6401
 3466.00,     0.00,  28.3821,   4.2573
 3482.00,     0.00,  21.2043,   3.1806
 3497.00,     0.00,  18.1445,   2.7217
 3512.00,     0.00,   12.511,   1.8766
 3528.00,     0.00,  10.4735,    1.571
 3546.00,     0.00,  12.0463,   1.8069
 3561.00,     0.00,  16.1856,   2.4278
 3572.00,     0.00,  21.8549,   3.2782
 3594.00,     0.00,  23.4349,   3.5152
 3609.00,     0.00,  21.9192,   3.2879
 3624.00,     0.00,  23.9925,   3.5989
 3647.00,     0.00,  28.6609,   4.2991
 3669.00,     0.00,  28.1819,   4.2273
 3692.00,     0.00,  27.7029,   4.1554
 3707.00,     0.00,  24.6359,   3.6954
 3723.00,     0.00,  21.5761,   3.2364
 3738.00,     0.00,  19.5386,   2.9308
 3757.00,     0.00,  12.3751,   1.8563
 3776.00,     0.00,   11.889,   1.7834
 3788.00,     0.00,   7.7926,   1.1689
 3806.00,     0.00,   6.2762,   0.9415
 3822.00,     0.00,   3.7283,   0.5592
 3841.00,     0.00,   1.7001,    0.255
 3852.00,     0.00,   4.2888,   0.6433
 3874.00,     0.00,  11.0097,   1.6514
 3896.00,     0.00,  19.7888,   2.9683
 3910.00,     0.00,  25.9799,    3.897
 3932.00,     0.00,  33.7296,   5.0594
 3943.00,     0.00,  37.8618,   5.6793
 3966.00,     0.00,  41.4936,    6.224
 3973.00,     0.00,  43.5668,    6.535
 3988.00,     0.00,  45.6472,   6.8471
 4006.00,     0.00,    47.22,    7.083
 4025.00,     0.00,  47.2486,   7.0873
 4048.00,     0.00,  47.2844,   7.0927
 4063.00,     0.00,  45.7616,   6.8642
 4078.00,     0.00,  43.7312,   6.5597
 4082.00,     0.00,   38.591,   5.7887
 4098.00,     0.00,  36.5535,    5.483
 4106.00,     0.00,  28.3392,   4.2509
 4121.00,     0.00,  23.2204,   3.4831
 4122.00,     0.00,  16.5359,   2.4804
 4137.00,     0.00,  18.1016,   2.7152
 4155.00,     0.00,  20.7039,   3.1056
 4162.00,     0.00,  25.8584,   3.8788
 4174.00,     0.00,  27.4169,   4.1125
 4185.00,     0.00,  31.0344,   4.6552
 4210.00,     0.00,   37.247,    5.587
 4211.00,     0.00,  34.6733,    5.201
 4232.00,     0.00,  45.5114,   6.8267
 4244.00,     0.00,  47.0699,   7.0605
 4255.00,     0.00,  49.1431,   7.3715
 4266.00,     0.00,  44.5319,   6.6798
 4278.00,     0.00,  39.9208,   5.9881
 4293.00,     0.00,  37.8904,   5.6836
 4312.00,     0.00,  36.3748,   5.4562
 4327.00,     0.00,   34.852,   5.2278
 4346.00,     0.00,  33.8511,   5.0777
 4358.00,     0.00,  32.3284,   4.8493
 4366.00,     0.00,  28.2248,   4.2337
 4377.00,     0.00,  22.5841,   3.3876
 4393.00,     0.00,  19.5243,   2.9286
 4397.00,     0.00,  12.3323,   1.8498
 4420.00,     0.00,   10.309,   1.5464
 4435.00,     0.00,  12.9042,   1.9356
 4449.00,     0.00,  16.5288,   2.4793
 4460.00,     0.00,  24.7717,   3.7158
 4471.00,     0.00,  27.3597,    4.104
 4486.00,     0.00,  29.4401,    4.416
 4493.00,     0.00,  30.9986,   4.6498
 4508.00,     0.00,  36.6751,   5.5013
 4522.00,     0.00,  44.9251,   6.7388
 4541.00,     0.00,  47.0127,   7.0519
 4552.00,     0.00,  44.4605,   6.6691
 4568.00,     0.00,  39.3417,   5.9013
 4587.00,     0.00,  38.3408,   5.7511
 4605.00,     0.00,   43.002,   6.4503
 4613.00,     0.00,  36.3247,   5.4487
 4629.00,     0.00,   25.551,   3.8326
 4641.00,     0.00,  14.2554,   2.1383
 4650.00,     0.00,     6.55,   0.9825
 4661.00,     0.00,   3.9957,   0.5993
 4684.00,     0.00,   1.9739,   0.2961
 4703.00,     0.00,   1.4884,   0.2233
 4725.00,     0.00,   2.0375,   0.3056
 4744.00,     0.00,   3.6096,   0.5414
 4755.00,     0.00,   5.1703,   0.7755
 4766.00,     0.00,   7.2421,   1.0863
 4777.00,     0.00,   11.889,   1.7834
 4795.00,     0.00,  19.6315,   2.9447
 4802.00,     0.00,  25.3008,   3.7951
 4817.00,     0.00,  34.0656,   5.1098
 4838.00,     0.00,  48.4997,    7.275
 4857.00,     0.00,  47.4988,   7.1248
 4868.00,     0.00,  53.1752,   7.9763
 4891.00,     0.00,  52.6963,   7.9048
 4909.00,     0.00,  52.7249,   7.9091
 4928.00,     0.00,  53.2682,   7.9906
 4943.00,     0.00,  51.2378,    7.686
 4966.00,     0.00,  49.2146,   7.3822
 4981.00,     0.00,  48.2066,   7.2313
 4993.00,     0.00,  39.4847,   5.9227
 5001.00,     0.00,  33.8368,   5.0755
 5013.00,     0.00,  28.1962,   4.2294
EndData:

