Comment:    Automatically converted from EXFOR
            by the IAEA-NDS EXFOR Web-Retrieval System
            program version-2012/10/18, by V.Zerkin.
            "Excited levels between 11.7 and 13.0 MeV of 22Ne
             investigated by 18O+alpha reaction"
            S.Gorodetzky,  M.Port,  J.Graff,  J.M.Thirion, 
            G.Chouraqui
            EXFOR: D0272002    Created: 2006-06-24  Updated: 2006-06-27
            X4Reaction:8-O-18(A,EL)8-O-18,,DA; X4Points:927
            Data converted from C.M. to Lab. 
            LevelEnergy: 0.00

Version:      R33
X4Number:     D0272002
Source:       S.Gorodetzky+(1968), Jour. Journal de Physique, Vol.29, p.271
Reaction:     18O(a,a0)18O
Distribution: Energy
Sigfactors:   1.00, 0.00
Enfactors:    1.00, 0.00, 0.00, 0.00
Units:        mb
Composition:
Masses:       4.0, 18.0, 4.0, 18.0
Zeds:         2, 8, 2, 8
Qvalue:       -0.0, 0.00, 0.00, 0.00, 0.00
Theta:        97.2
Data:
 2962.00,     0.00, 115.6145,  17.3422
 2996.00,     0.00, 113.0371,  16.9556
 3019.00,     0.00, 110.3676,  16.5551
 3053.00,     0.00, 106.5015,  15.9752
 3080.00,     0.00,  93.1543,  13.9732
 3108.00,     0.00,  78.4632,  11.7695
 3139.00,     0.00,  51.7596,   7.7639
 3170.00,     0.00,  43.1253,   6.4688
 3202.00,     0.00,  65.2909,   9.7941
 3228.00,     0.00,  78.0674,  11.7106
 3269.00,     0.00,  82.1728,  12.3264
 3295.00,     0.00,  86.9134,   13.037
 3325.00,     0.00,  88.3217,  13.2478
 3356.00,     0.00,   77.018,  11.5532
 3415.00,     0.00,  85.8548,  12.8787
 3445.00,     0.00,  80.5619,  12.0843
 3480.00,     0.00,  78.6381,  11.7962
 3511.00,     0.00,  57.2826,   8.5924
 3542.00,     0.00,  42.6282,   6.3942
 3572.00,     0.00,    48.05,   7.2075
 3609.00,     0.00,  61.5168,    9.228
 3638.00,     0.00,  62.9252,   9.4388
 3672.00,     0.00,  65.0147,   9.7517
 3703.00,     0.00,  57.7152,   8.6573
 3733.00,     0.00,  57.1169,   8.5675
 3771.00,     0.00,  50.5077,   7.5762
 3806.00,     0.00,  37.1973,   5.5796
 3840.00,     0.00,  34.6015,   5.1902
 3874.00,     0.00,  31.9965,   4.7995
 3904.00,     0.00,  22.6995,   3.4049
 3942.00,     0.00,  19.4409,   2.9161
 3975.00,     0.00,  31.5639,   4.7346
 4009.00,     0.00,  32.9722,   4.9458
 4043.00,     0.00,  31.7111,   4.7567
 4077.00,     0.00,  30.4501,   4.5675
 4147.00,     0.00,  51.3638,   7.7046
 4178.00,     0.00,  32.6869,    4.903
 4213.00,     0.00,  22.0551,   3.3083
 4250.00,     0.00,  25.4886,   3.8233
 4281.00,     0.00,  16.1823,   2.4274
 4314.00,     0.00,  20.9505,   3.1426
 4344.00,     0.00,   27.035,   4.0553
 4384.00,     0.00,  44.5337,     6.68
 4418.00,     0.00,    33.23,   4.9845
 4457.00,     0.00,  23.2794,   3.4919
 4490.00,     0.00,   24.025,   3.6037
 4531.00,     0.00,   38.173,    5.726
 4558.00,     0.00,  18.8242,   2.8236
 4600.00,     0.00,  12.2242,   1.8336
 4640.00,     0.00,  37.7496,   5.6624
 4670.00,     0.00,  29.1153,   4.3673
 4701.00,     0.00,  18.4744,   2.7712
 4739.00,     0.00,  19.9012,   2.9852
 4785.00,     0.00,  11.3037,   1.6956
 4807.00,     0.00,   8.6757,   1.3014
 4841.00,     0.00,    8.753,    1.313
 4882.00,     0.00,  12.8593,   1.9289
 4924.00,     0.00,     9.61,   1.4415
 4963.00,     0.00,  35.1354,   5.2703
 4982.00,     0.00,  31.8308,   4.7746
 5031.00,     0.00,   26.584,   3.9876
EndData:

