Comment:    Automatically converted from EXFOR
            by the IAEA-NDS EXFOR Web-Retrieval System
            program version-2012/10/18, by V.Zerkin.
            "Investigation of the a-cluster structure of
             22Ne and 22Mg"
            V.Z.Goldberg, G.V.Rogachev, W.H.Trzaska, J.J.Kolata, 
            A.Andreyev, C.Angulo, M.J.G.Borge, S.Cherubini, 
            G.Chubarian, G.Crowley, P.Van Duppen, M.Gorska, 
            M.Gulino, M.Huyse, P.Jesinger, K.-M.Kallman, 
            M.Lattuada, T.Lonnroth, M.Mutterer, R.Raabe, 
            S.Romano, M.V.Rozhkov, B.B.Skorodumov, C.Spitaleri, 
            O.Tengblad, A.Tumino
            EXFOR: D0352003    Created: 2005-05-19  Updated: 2005-05-22
            X4Reaction:8-O-18(A,EL)8-O-18,,DA; X4Points:1183
            Data converted from C.M. to Lab. 
            LevelEnergy: 0.00
            Theta groupping interval=3.0 deg.

Version:      R33
X4Number:     D0352003
Source:       V.Z.Goldberg+(2004), Jour. Physical Review, Part C, Nuclear Physics, Vol.69, p.024602
Reaction:     18O(a,a0)18O
Distribution: Energy
Sigfactors:   1.00, 0.00
Enfactors:    1.00, 0.00, 0.00, 0.00
Units:        mb
Composition:
Masses:       4.0, 18.0, 4.0, 18.0
Zeds:         2, 8, 2, 8
Qvalue:       -0.0, 0.00, 0.00, 0.00, 0.00
Theta:        143.5
Data:
 3321.00,     0.00,  49.8685,   2.6913
 3333.00,     0.00,  53.0261,   2.7712
 3345.00,     0.00,  44.0663,   2.5181
 3356.00,     0.00,  43.3068,   2.4914
 3368.00,     0.00,  39.8362,   2.3848
 3380.00,     0.00,  42.6473,   2.4648
 3392.00,     0.00,   41.808,   2.4315
 3403.00,     0.00,  37.1516,   2.2916
 3415.00,     0.00,  38.4439,   2.3249
 3427.00,     0.00,  37.7444,   2.2982
 3439.00,     0.00,  33.4144,   2.1583
 3451.00,     0.00,  34.1272,   2.1783
 3463.00,     0.00,  30.5166,   2.0584
 3476.00,     0.00,  31.3493,   2.0784
 3488.00,     0.00,  27.1126,   1.9319
 3500.00,     0.00,  30.4633,   2.0451
 3512.00,     0.00,  26.4064,   1.8985
 3525.00,     0.00,  25.3606,   1.8586
 3537.00,     0.00,  23.5087,   1.7853
 3549.00,     0.00,  26.9727,   1.9119
 3562.00,     0.00,   26.946,   1.9119
 3574.00,     0.00,  22.1897,    1.732
 3587.00,     0.00,  26.7262,   1.8985
 3599.00,     0.00,  28.3916,   1.9518
 3612.00,     0.00,  23.4687,    1.772
 3624.00,     0.00,  28.2051,   1.9385
 3637.00,     0.00,   23.975,   1.7853
 3650.00,     0.00,  26.5463,   1.8786
 3663.00,     0.00,  22.0964,    1.712
 3675.00,     0.00,  25.4472,   1.8319
 3688.00,     0.00,  25.5138,   1.8319
 3701.00,     0.00,  27.8187,   1.9119
 3714.00,     0.00,  23.9617,    1.772
 3727.00,     0.00,  24.8277,   1.7986
 3740.00,     0.00,  25.1741,   1.8119
 3753.00,     0.00,  24.0749,    1.772
 3766.00,     0.00,  21.5502,   1.6721
 3779.00,     0.00,  24.8676,    1.792
 3792.00,     0.00,  23.6685,    1.752
 3805.00,     0.00,  26.8594,   1.8652
 3818.00,     0.00,  22.0431,   1.6854
 3831.00,     0.00,  22.9158,   1.7187
 3845.00,     0.00,  24.9342,    1.792
 3858.00,     0.00,  26.8261,   1.8586
 3871.00,     0.00,  33.3212,   2.0651
 3884.00,     0.00,  31.5625,   2.0051
 3898.00,     0.00,  37.9643,   2.1983
 3911.00,     0.00,  44.0929,   2.3649
 3924.00,     0.00,  39.6963,   2.2449
 3938.00,     0.00,  43.7865,   2.3515
 3951.00,     0.00,  46.2046,   2.4181
 3965.00,     0.00,  51.8869,    2.558
 3978.00,     0.00,  53.1926,   2.5847
 3992.00,     0.00,  52.0002,    2.558
 4005.00,     0.00,  50.8211,   2.5247
 4019.00,     0.00,   54.445,   2.6113
 4033.00,     0.00,  53.4191,   2.5913
 4046.00,     0.00,  55.2111,   2.6313
 4060.00,     0.00,  53.2459,    2.578
 4074.00,     0.00,  45.6317,   2.3848
 4088.00,     0.00,  50.9743,   2.5181
 4101.00,     0.00,  50.3614,   2.4981
 4115.00,     0.00,  48.4163,   2.4515
 4129.00,     0.00,  50.3281,   2.4914
 4143.00,     0.00,  50.9477,   2.5114
 4157.00,     0.00,  48.3497,   2.4448
 4171.00,     0.00,   49.209,   2.4648
 4184.00,     0.00,  54.2651,   2.5913
 4198.00,     0.00,  54.5183,   2.5913
 4212.00,     0.00,  54.7248,   2.5913
 4226.00,     0.00,  59.6144,   2.7046
 4240.00,     0.00,  64.2775,   2.8045
 4254.00,     0.00,  62.4788,   2.7646
 4268.00,     0.00,  67.6815,   2.8778
 4282.00,     0.00,  74.4763,   3.0177
 4297.00,     0.00,  71.2121,   2.9511
 4311.00,     0.00,    78.34,   3.0976
 4325.00,     0.00,  74.6762,   3.0177
 4339.00,     0.00,   71.412,   2.9511
 4353.00,     0.00,  79.2726,   3.1043
 4367.00,     0.00,  78.2068,   3.0843
 4382.00,     0.00,  75.9419,   3.0377
 4396.00,     0.00,  72.6777,   2.9711
 4410.00,     0.00,  74.4097,   3.0044
 4424.00,     0.00,  72.9442,   2.9711
 4439.00,     0.00,  68.8806,   2.8845
 4453.00,     0.00,  66.5224,   2.8378
 4467.00,     0.00,   73.144,   2.9711
 4482.00,     0.00,  70.2795,   2.9111
 4496.00,     0.00,  69.8798,   2.9044
 4511.00,     0.00,  72.0115,   2.9511
 4525.00,     0.00,  69.2803,   2.8911
 4540.00,     0.00,  69.5468,   2.8978
 4554.00,     0.00,   63.618,   2.7712
 4569.00,     0.00,  73.7435,   2.9777
 4583.00,     0.00,  70.6126,   2.9111
 4598.00,     0.00,  63.9843,   2.7712
 4612.00,     0.00,  63.4181,   2.7579
 4627.00,     0.00,  58.9549,    2.658
 4641.00,     0.00,   60.467,   2.6913
 4656.00,     0.00,  51.7804,   2.4914
 4670.00,     0.00,  56.9897,   2.6113
 4685.00,     0.00,  52.8795,   2.5181
 4695.00,     0.00,  45.7117,   2.1517
 4710.00,     0.00,  46.5177,   2.1717
 4725.00,     0.00,  46.8908,   2.1783
 4739.00,     0.00,    52.20,   2.2982
 4754.00,     0.00,  51.8137,   2.2849
 4769.00,     0.00,  61.9392,   2.4981
 4783.00,     0.00,  60.3471,   2.4648
 4798.00,     0.00,   73.144,   2.7179
 4813.00,     0.00,  66.9487,    2.598
 4828.00,     0.00,  72.6777,   2.7046
 4842.00,     0.00,  72.5445,   2.7046
 4857.00,     0.00,  68.1478,    2.618
 4872.00,     0.00,  71.4786,   2.6846
 4887.00,     0.00,  62.9651,   2.5181
 4902.00,     0.00,  67.2818,   2.6047
 4917.00,     0.00,  67.2818,   2.6047
 4931.00,     0.00,  56.6766,   2.3848
 4946.00,     0.00,  54.3451,   2.3382
 4961.00,     0.00,  54.1719,   2.3382
 4976.00,     0.00,  49.4821,   2.2316
 4991.00,     0.00,   49.209,    2.225
 5006.00,     0.00,  46.6176,    2.165
 5021.00,     0.00,  47.7568,   2.1917
 5036.00,     0.00,  40.2892,   2.0118
 5051.00,     0.00,  41.7813,   2.0518
 5066.00,     0.00,  39.4498,   1.9918
 5081.00,     0.00,  43.9797,   2.1051
 5096.00,     0.00,  39.9627,   2.0051
 5111.00,     0.00,  39.9827,   2.0051
 5126.00,     0.00,  43.6066,   2.0917
 5141.00,     0.00,  46.2113,   2.1517
 5156.00,     0.00,  42.1211,   2.0518
 5171.00,     0.00,  41.8413,   2.0518
 5186.00,     0.00,  46.7376,    2.165
 5202.00,     0.00,  45.6717,   2.1384
 5217.00,     0.00,  49.7686,   2.2316
 5232.00,     0.00,  45.8715,    2.145
 5247.00,     0.00,  48.7827,   2.2116
 5262.00,     0.00,  46.0447,   2.1517
EndData:

