Comment:    Automatically converted from EXFOR
            by the IAEA-NDS EXFOR Web-Retrieval System
            program version-2012/10/18, by V.Zerkin.
            "Investigation of the a-cluster structure of
             22Ne and 22Mg"
            V.Z.Goldberg, G.V.Rogachev, W.H.Trzaska, J.J.Kolata, 
            A.Andreyev, C.Angulo, M.J.G.Borge, S.Cherubini, 
            G.Chubarian, G.Crowley, P.Van Duppen, M.Gorska, 
            M.Gulino, M.Huyse, P.Jesinger, K.-M.Kallman, 
            M.Lattuada, T.Lonnroth, M.Mutterer, R.Raabe, 
            S.Romano, M.V.Rozhkov, B.B.Skorodumov, C.Spitaleri, 
            O.Tengblad, A.Tumino
            EXFOR: D0352002    Created: 2005-05-19  Updated: 2005-05-22
            X4Reaction:8-O-18(A,EL)8-O-18,,DA; X4Points:801
            Data converted from C.M. to Lab. 
            LevelEnergy: 0.00

Version:      R33
X4Number:     D0352002
Source:       V.Z.Goldberg+(2004), Jour. Physical Review, Part C, Nuclear Physics, Vol.69, p.024602
Reaction:     18O(a,a0)18O
Distribution: Energy
Sigfactors:   1.00, 0.00
Enfactors:    1.00, 0.00, 0.00, 0.00
Units:        mb
Composition:
Masses:       4.0, 18.0, 4.0, 18.0
Zeds:         2, 8, 2, 8
Qvalue:       -0.0, 0.00, 0.00, 0.00, 0.00
Theta:        180
Data:
 2612.00,     0.00,  42.1037,   2.2564
 2620.00,     0.00,  37.9296,   2.1294
 2629.00,     0.00,  41.6681,   2.2262
 2638.00,     0.00,  40.1619,   2.1778
 2647.00,     0.00,  39.0367,   2.1354
 2656.00,     0.00,  38.4317,   2.1112
 2665.00,     0.00,  36.4596,   2.0507
 2674.00,     0.00,  35.5522,   2.0205
 2683.00,     0.00,  37.9599,    2.081
 2693.00,     0.00,  38.4922,    2.087
 2702.00,     0.00,  37.3307,   2.0507
 2711.00,     0.00,  44.4448,   2.2262
 2721.00,     0.00,  43.2531,   2.1899
 2730.00,     0.00,  46.6044,   2.2685
 2740.00,     0.00,  47.7236,   2.2867
 2749.00,     0.00,   41.656,   2.1294
 2759.00,     0.00,   42.388,   2.1415
 2769.00,     0.00,  44.5719,   2.1899
 2779.00,     0.00,  40.9543,   2.0931
 2788.00,     0.00,  38.8612,   2.0386
 2798.00,     0.00,  38.6495,   2.0265
 2808.00,     0.00,  34.4028,   1.9056
 2818.00,     0.00,  35.9817,   1.9419
 2828.00,     0.00,  37.5546,   1.9781
 2839.00,     0.00,  35.5462,   1.9237
 2849.00,     0.00,  40.3796,   2.0447
 2859.00,     0.00,  39.3028,   2.0144
 2869.00,     0.00,   42.999,   2.0991
 2880.00,     0.00,  46.9251,   2.1899
 2890.00,     0.00,  49.9014,   2.2504
 2901.00,     0.00,  53.7669,    2.329
 2911.00,     0.00,  57.2514,   2.3956
 2922.00,     0.00,  55.7088,   2.3593
 2932.00,     0.00,  56.0657,   2.3653
 2943.00,     0.00,  57.5599,   2.3895
 2954.00,     0.00,  58.6488,   2.4016
 2965.00,     0.00,  50.8995,   2.2322
 2976.00,     0.00,   53.773,   2.2927
 2987.00,     0.00,  49.4416,   2.1899
 2998.00,     0.00,  44.7594,    2.081
 3009.00,     0.00,   44.959,    2.081
 3020.00,     0.00,    40.67,   1.9721
 3031.00,     0.00,  37.9417,   1.9056
 3042.00,     0.00,  35.4131,    1.839
 3053.00,     0.00,   30.622,   1.7059
 3065.00,     0.00,  30.1138,   1.6878
 3076.00,     0.00,  26.7988,   1.5849
 3088.00,     0.00,   23.514,   1.4821
 3099.00,     0.00,  21.8383,   1.4277
 3110.00,     0.00,  20.6405,   1.3853
 3122.00,     0.00,  18.7047,   1.3188
 3134.00,     0.00,  20.3864,   1.3732
 3145.00,     0.00,  24.3488,   1.4942
 3157.00,     0.00,  30.1199,   1.6575
 3169.00,     0.00,  37.3973,   1.8451
 3181.00,     0.00,  43.5374,   1.9902
 3192.00,     0.00,  48.9153,   2.1052
 3204.00,     0.00,  55.8842,   2.2443
 3216.00,     0.00,  58.3342,   2.2927
 3228.00,     0.00,  60.2458,    2.323
 3240.00,     0.00,  60.6148,    2.329
 3252.00,     0.00,  64.1235,   2.3956
 3265.00,     0.00,  57.1969,   2.2564
 3277.00,     0.00,  56.8702,   2.2504
 3289.00,     0.00,  56.0778,   2.2262
 3301.00,     0.00,  48.3951,   2.0689
 3313.00,     0.00,  44.5537,   1.9781
 3326.00,     0.00,   41.287,   1.9056
 3338.00,     0.00,  37.5062,   1.8148
 3351.00,     0.00,  37.8328,   1.8209
 3363.00,     0.00,   34.917,   1.7422
 3376.00,     0.00,  36.3628,   1.7785
 3388.00,     0.00,  32.2674,   1.6696
 3401.00,     0.00,  33.6406,   1.7059
 3413.00,     0.00,  28.9826,   1.5789
 3426.00,     0.00,  29.8719,   1.6031
 3439.00,     0.00,  30.6704,   1.6212
 3451.00,     0.00,   28.299,   1.5547
 3464.00,     0.00,  25.3227,     1.47
 3477.00,     0.00,   19.479,   1.2885
 3490.00,     0.00,  17.5553,    1.222
 3503.00,     0.00,  14.8754,   1.1191
 3516.00,     0.00,  15.8433,   1.1554
 3529.00,     0.00,  15.0569,   1.1252
 3542.00,     0.00,  18.5474,   1.2462
 3555.00,     0.00,  23.8769,   1.4156
 3568.00,     0.00,   25.849,     1.47
 3581.00,     0.00,   31.487,   1.6212
 3594.00,     0.00,  31.5173,   1.6212
 3607.00,     0.00,  31.2088,   1.6091
 3620.00,     0.00,  33.6225,   1.6696
 3633.00,     0.00,  33.2837,   1.6575
 3647.00,     0.00,  35.3526,   1.7059
 3660.00,     0.00,   36.623,   1.7362
 3673.00,     0.00,    38.22,   1.7725
 3687.00,     0.00,  37.5909,   1.7604
 3700.00,     0.00,  33.0175,   1.6454
 3713.00,     0.00,  27.9723,   1.5123
 3727.00,     0.00,  23.9253,   1.3974
 3740.00,     0.00,  21.5237,   1.3248
 3754.00,     0.00,  18.9467,   1.2462
 3767.00,     0.00,  14.0951,   1.0707
 3781.00,     0.00,  13.9862,   1.0647
 3795.00,     0.00,   9.7395,   0.8893
 3808.00,     0.00,   9.5641,   0.8832
 3822.00,     0.00,  10.2779,   0.9135
 3836.00,     0.00,  12.3589,   0.9981
 3849.00,     0.00,  22.1044,   1.3369
 3863.00,     0.00,  36.1874,   1.7059
 3877.00,     0.00,  46.1205,   1.9237
 3891.00,     0.00,  58.8907,   2.1778
 3904.00,     0.00,  67.6926,    2.329
 3918.00,     0.00,  74.7099,     2.45
 3932.00,     0.00,  71.0198,   2.3835
 3946.00,     0.00,  63.7605,   2.2564
 3960.00,     0.00,  61.8247,   2.2201
 3974.00,     0.00,  53.3616,   2.0628
 3988.00,     0.00,  54.6864,    2.087
 4002.00,     0.00,  52.3695,   2.0386
 4016.00,     0.00,  51.2927,   2.0205
 4030.00,     0.00,  60.6148,   2.1959
 4044.00,     0.00,  53.9484,   2.0689
 4058.00,     0.00,   54.027,   2.0689
 4072.00,     0.00,  49.6291,   1.9842
 4087.00,     0.00,  45.1526,   1.8935
 4101.00,     0.00,  34.3302,   1.6454
 4115.00,     0.00,  32.7574,   1.6091
 4129.00,     0.00,  36.2419,   1.6878
 4143.00,     0.00,   41.154,   1.7967
 4158.00,     0.00,  51.1778,   2.0084
 4172.00,     0.00,  60.8568,   2.1899
 4186.00,     0.00,  74.4074,   2.4198
 4201.00,     0.00,  95.5802,   2.7404
 4215.00,     0.00, 114.4543,   3.0005
 4229.00,     0.00, 137.9259,   3.2909
 4244.00,     0.00, 173.7988,   3.6841
 4258.00,     0.00, 211.7284,   4.0652
 4273.00,     0.00, 218.2012,   4.1257
 4287.00,     0.00, 225.3395,   4.1922
 4302.00,     0.00, 202.7753,   3.9805
 4316.00,     0.00, 168.1123,   3.6236
 4331.00,     0.00, 147.9679,   3.3998
 4345.00,     0.00, 124.9198,   3.1275
 4360.00,     0.00, 106.0457,   2.8795
 4374.00,     0.00,  94.6728,   2.7162
 4389.00,     0.00,  83.9049,   2.5589
 4404.00,     0.00,   78.884,   2.4802
 4418.00,     0.00,  72.5321,   2.3774
 4433.00,     0.00,  75.4963,   2.4258
 4448.00,     0.00,  71.6247,   2.3593
 4462.00,     0.00,  75.9198,   2.4258
 4477.00,     0.00,  82.2716,   2.5286
 4492.00,     0.00, 105.3802,   2.8614
 4507.00,     0.00, 124.9802,   3.1154
 4522.00,     0.00, 159.2802,   3.5147
 4536.00,     0.00, 185.1716,   3.7869
 4551.00,     0.00, 198.4802,     3.92
 4566.00,     0.00, 187.8938,   3.8111
 4581.00,     0.00, 152.5654,    3.436
 4596.00,     0.00, 114.7568,   2.9823
 4611.00,     0.00,  79.6099,   2.4802
 4626.00,     0.00,  53.2951,   2.0326
 4640.00,     0.00,  40.6881,   1.7725
 4655.00,     0.00,   43.368,   1.8269
 4670.00,     0.00,   51.946,   2.0023
 4685.00,     0.00,  66.6037,   2.2685
 4700.00,     0.00,  78.4605,   2.4621
 4715.00,     0.00,  89.6519,   2.6315
 4730.00,     0.00,  99.3309,   2.7706
 4745.00,     0.00,  108.163,   2.8916
 4760.00,     0.00, 113.7889,   2.9642
 4776.00,     0.00, 114.0309,   2.9642
 4791.00,     0.00,  117.237,   3.0065
 4806.00,     0.00, 120.1407,   3.0428
 4821.00,     0.00, 117.7815,   3.0126
 4836.00,     0.00,  122.016,    3.067
 4851.00,     0.00, 130.3037,   3.1759
 4866.00,     0.00, 128.2469,   3.1457
 4881.00,     0.00, 116.2086,   2.9944
 4897.00,     0.00,  90.7407,   2.6436
 4912.00,     0.00,  55.1159,   2.0628
 4927.00,     0.00,  31.0031,   1.5426
 4942.00,     0.00,  24.7904,   1.3793
 4958.00,     0.00,   29.521,   1.5063
 4973.00,     0.00,  34.8142,   1.6394
 4988.00,     0.00,   46.677,   1.8995
 5004.00,     0.00,  49.2843,    1.954
 5019.00,     0.00,  56.3077,    2.087
 5034.00,     0.00,  58.2253,   2.1233
 5049.00,     0.00,  55.0554,   2.0628
 5065.00,     0.00,  42.8236,   1.8148
 5080.00,     0.00,   37.367,   1.6938
 5095.00,     0.00,  31.8802,   1.5668
 5111.00,     0.00,  31.0515,   1.5486
 5126.00,     0.00,  33.6709,   1.6091
 5142.00,     0.00,  39.2726,   1.7362
 5157.00,     0.00,   41.644,   1.7906
 5173.00,     0.00,   50.839,   1.9842
 5188.00,     0.00,  53.5794,   2.0326
 5204.00,     0.00,  55.6846,   2.0749
 5219.00,     0.00,  55.4365,   2.0689
 5234.00,     0.00,  48.2862,   1.9298
 5250.00,     0.00,  49.5565,     1.96
 5266.00,     0.00,  46.7617,   1.9056
 5281.00,     0.00,  44.1968,   1.8511
 5297.00,     0.00,  42.3457,   1.8088
 5312.00,     0.00,  40.5006,   1.7725
 5328.00,     0.00,  50.9056,   1.9842
 5343.00,     0.00,  63.2765,    2.208
 5359.00,     0.00,  77.8556,    2.456
 5374.00,     0.00,  87.2926,   2.6012
 5390.00,     0.00,   97.879,   2.7525
 5406.00,     0.00,  102.416,    2.819
 5421.00,     0.00,  91.1642,   2.6557
 5437.00,     0.00,  91.6481,   2.6678
 5453.00,     0.00, 102.3556,    2.819
 5468.00,     0.00, 111.4296,     2.94
 5484.00,     0.00, 116.8741,   3.0126
 5500.00,     0.00, 110.5827,   2.9279
 5515.00,     0.00,  88.8654,   2.6254
 5531.00,     0.00,  66.4222,   2.2685
 5547.00,     0.00,  68.7815,   2.3109
 5562.00,     0.00,  69.2049,   2.3169
 5578.00,     0.00,  74.8914,   2.4137
 5594.00,     0.00,  74.8309,   2.4137
 5610.00,     0.00,  67.2691,   2.2867
 5625.00,     0.00,  67.8741,   2.2988
 5641.00,     0.00,  69.2654,    2.323
 5657.00,     0.00,  70.2938,   2.3411
 5673.00,     0.00,  77.9765,   2.4621
 5689.00,     0.00,  79.7309,   2.4923
 5704.00,     0.00,  80.6988,   2.5105
 5720.00,     0.00,  89.2889,   2.6436
 5736.00,     0.00,  86.6877,   2.6012
 5752.00,     0.00,  87.5951,   2.6133
 5768.00,     0.00,  90.5593,   2.6617
 5784.00,     0.00,  83.7235,   2.5589
 5799.00,     0.00,  78.9444,   2.4863
 5815.00,     0.00,  75.2543,   2.4258
 5831.00,     0.00,  76.8877,    2.456
 5847.00,     0.00,  67.3901,   2.2988
 5863.00,     0.00,  71.9272,   2.3774
 5879.00,     0.00,  64.7889,   2.2564
 5895.00,     0.00,  72.7741,   2.3895
 5911.00,     0.00,  79.1864,   2.4923
 5927.00,     0.00,  86.3247,   2.6073
 5943.00,     0.00,  91.5877,   2.6859
 5959.00,     0.00, 106.1667,   2.8916
 5975.00,     0.00, 126.9765,   3.1578
 5991.00,     0.00, 150.4481,   3.4421
 6007.00,     0.00, 156.4975,   3.5147
 6022.00,     0.00, 159.5222,   3.5449
 6038.00,     0.00, 165.8741,   3.6175
 6055.00,     0.00, 162.3049,   3.5812
 6071.00,     0.00, 152.9284,   3.4784
 6087.00,     0.00, 154.6827,   3.4965
 6103.00,     0.00, 157.4049,   3.5328
 6119.00,     0.00, 143.6728,   3.3756
 6135.00,     0.00, 142.7049,   3.3635
 6151.00,     0.00, 135.6272,   3.2788
 6167.00,     0.00,  146.637,   3.4119
 6183.00,     0.00, 163.8778,   3.6054
 6199.00,     0.00, 178.5778,   3.7688
 6215.00,     0.00, 179.8481,   3.7809
 6231.00,     0.00, 172.0444,   3.7022
 6247.00,     0.00,  156.437,   3.5328
 6263.00,     0.00, 169.2012,    3.672
 6279.00,     0.00, 160.4296,   3.5752
 6296.00,     0.00, 170.6531,   3.6901
 6312.00,     0.00, 164.3012,   3.6236
 6328.00,     0.00, 173.1333,   3.7204
 6344.00,     0.00,  195.758,   3.9502
 6360.00,     0.00, 212.2123,   4.1136
 6376.00,     0.00, 224.1901,   4.2346
 6392.00,     0.00,   215.60,   4.1559
 6409.00,     0.00, 190.1321,   3.9079
 6425.00,     0.00, 173.6173,   3.7325
 6441.00,     0.00, 162.1235,   3.6115
 6457.00,     0.00, 157.8284,   3.5631
 6473.00,     0.00, 147.3025,    3.436
 6489.00,     0.00, 142.7654,   3.3877
 6506.00,     0.00, 136.7765,   3.3211
 6522.00,     0.00, 115.9667,    3.061
 6538.00,     0.00, 114.3938,   3.0368
 6554.00,     0.00, 115.0593,   3.0489
 6571.00,     0.00, 131.1506,   3.2606
 6587.00,     0.00, 153.4123,   3.5207
 6603.00,     0.00, 174.8877,   3.7567
 6619.00,     0.00, 186.8049,   3.8837
 6636.00,     0.00, 216.9914,   4.1983
 6652.00,     0.00, 244.3346,   4.4584
 6668.00,     0.00, 288.4346,   4.8395
 6684.00,     0.00, 321.1617,   5.1117
 6701.00,     0.00, 307.0667,   4.9968
 6717.00,     0.00, 248.1457,   4.4947
 6733.00,     0.00, 168.1123,   3.7022
 6750.00,     0.00, 120.0802,   3.1336
 6766.00,     0.00, 101.2667,   2.8735
 6782.00,     0.00,   83.784,   2.6194
 6799.00,     0.00,  75.5568,   2.4863
 6815.00,     0.00,  67.9346,   2.3532
 6831.00,     0.00,  59.4352,    2.208
 6848.00,     0.00,  51.1052,   2.0507
 6864.00,     0.00,  50.0223,   2.0265
 6880.00,     0.00,  58.8363,   2.1959
 6897.00,     0.00,   78.279,   2.5347
 6913.00,     0.00,  97.5765,   2.8372
 6929.00,     0.00, 126.7346,   3.2304
 6946.00,     0.00, 146.5765,   3.4784
 6962.00,     0.00, 167.2654,   3.7204
 6978.00,     0.00, 187.2284,   3.9381
 6995.00,     0.00, 187.5914,   3.9381
 7011.00,     0.00, 182.9938,   3.8958
 7028.00,     0.00, 175.8556,   3.8172
 7044.00,     0.00, 148.3914,   3.5086
 7060.00,     0.00, 118.5679,   3.1396
 7077.00,     0.00,  91.7691,   2.7646
 7093.00,     0.00,  84.8728,   2.6557
 7110.00,     0.00,  89.1074,   2.7222
 7126.00,     0.00,  96.8506,   2.8432
 7143.00,     0.00,   107.80,   3.0065
 7159.00,     0.00, 107.4975,   2.9884
 7175.00,     0.00, 100.3593,   2.8916
 7192.00,     0.00,  89.2889,   2.7404
 7208.00,     0.00,  87.3531,   2.7041
 7225.00,     0.00,  88.2605,   2.7162
 7241.00,     0.00, 106.4086,   2.9823
 7258.00,     0.00, 133.5099,   3.3514
 7274.00,     0.00, 170.7741,    3.793
 7291.00,     0.00,  200.537,   4.1075
 7307.00,     0.00, 211.3049,   4.2164
 7324.00,     0.00, 223.8272,   4.3435
 7340.00,     0.00, 228.3642,   4.3919
 7357.00,     0.00, 216.9309,    4.283
 7373.00,     0.00, 205.6185,    4.168
 7390.00,     0.00,  171.137,   3.8051
 7406.00,     0.00,   151.90,   3.5873
 7423.00,     0.00,  137.079,   3.4119
 7439.00,     0.00, 129.2753,   3.3151
 7456.00,     0.00, 116.0877,   3.1336
 7472.00,     0.00, 115.3617,   3.1275
 7489.00,     0.00, 110.5222,   3.0731
 7505.00,     0.00, 120.3827,   3.2062
 7522.00,     0.00, 124.9802,   3.2667
 7538.00,     0.00, 138.5914,    3.436
 7555.00,     0.00, 143.0679,   3.5026
 7572.00,     0.00,  122.742,   3.2485
 7588.00,     0.00,  91.7691,   2.8069
 7605.00,     0.00,  61.8247,   2.3048
 7621.00,     0.00,  51.1294,   2.0991
 7638.00,     0.00,   56.592,    2.208
 7654.00,     0.00,  72.3506,   2.4984
 7671.00,     0.00,  83.6025,   2.6859
 7688.00,     0.00,  89.2889,   2.7767
 7704.00,     0.00,  90.1963,   2.7948
 7721.00,     0.00,  85.9617,   2.7283
 7737.00,     0.00,  78.4605,   2.6073
 7754.00,     0.00,  67.2086,   2.4137
 7771.00,     0.00,  56.7432,   2.2201
 7787.00,     0.00,  52.2606,   2.1294
 7804.00,     0.00,  54.6804,   2.1778
 7820.00,     0.00,   68.479,    2.444
 7837.00,     0.00,  77.9765,   2.6073
 7854.00,     0.00,  82.8765,   2.6859
 7870.00,     0.00,  90.6802,    2.813
 7887.00,     0.00, 105.0778,   3.0368
 7903.00,     0.00, 122.1975,   3.2727
 7920.00,     0.00, 157.6469,   3.7204
 7937.00,     0.00, 176.3395,   3.9321
 7953.00,     0.00,  186.684,   4.0531
 7970.00,     0.00,  171.016,   3.8837
 7987.00,     0.00, 148.8753,   3.6236
 8003.00,     0.00, 148.8148,   3.6175
 8020.00,     0.00, 154.2593,   3.6841
 8037.00,     0.00, 177.9123,   3.9684
 8053.00,     0.00, 214.9346,   4.3677
 8070.00,     0.00, 216.5074,   4.3798
 8087.00,     0.00, 211.3049,   4.3253
 8103.00,     0.00, 198.2383,   4.1983
 8120.00,     0.00, 168.3543,   3.8777
 8137.00,     0.00, 150.0852,   3.6599
 8153.00,     0.00, 126.0691,   3.3514
 8170.00,     0.00, 114.6358,   3.1941
 8187.00,     0.00, 105.0173,    3.067
 8204.00,     0.00,  99.8148,   2.9944
 8220.00,     0.00,  87.5346,   2.7948
 8237.00,     0.00,  79.2469,   2.6617
 8254.00,     0.00,  81.9086,   2.7101
 8270.00,     0.00,  85.4173,   2.7706
 8287.00,     0.00,  89.2889,   2.8311
 8304.00,     0.00,   87.716,    2.813
 8321.00,     0.00,   87.716,    2.813
 8337.00,     0.00,  84.3889,   2.7585
 8354.00,     0.00,  83.7235,   2.7525
 8371.00,     0.00,  83.3605,   2.7464
 8387.00,     0.00,   83.663,   2.7525
 8404.00,     0.00,  89.9543,   2.8614
 8421.00,     0.00,  92.0716,   2.8856
 8438.00,     0.00,  88.8049,   2.8372
 8454.00,     0.00,  80.8198,   2.7162
 8471.00,     0.00,   78.642,   2.6799
 8488.00,     0.00,  70.1728,   2.5347
 8505.00,     0.00,  65.8173,     2.45
 8521.00,     0.00,  54.7348,   2.2383
 8538.00,     0.00,  60.8568,   2.3653
 8555.00,     0.00,  51.9944,   2.1899
 8572.00,     0.00,  43.7431,   2.0023
 8589.00,     0.00,    46.06,   2.0568
 8605.00,     0.00,   47.167,    2.087
 8622.00,     0.00,  46.5742,   2.0749
 8639.00,     0.00,   41.039,   1.9479
 8656.00,     0.00,  43.9911,   2.0144
 8672.00,     0.00,   42.019,    1.966
 8689.00,     0.00,  42.8901,   1.9963
 8706.00,     0.00,  40.2889,   1.9358
 8723.00,     0.00,  36.4838,   1.8451
 8740.00,     0.00,  36.3991,    1.839
 8756.00,     0.00,  35.0441,   1.8027
 8773.00,     0.00,  35.7458,   1.8269
 8790.00,     0.00,  36.6048,   1.8511
 8807.00,     0.00,  43.5193,   2.0144
 8824.00,     0.00,  44.4146,   2.0386
 8841.00,     0.00,  53.9363,   2.2443
 8857.00,     0.00,  56.8823,   2.3048
 8874.00,     0.00,  67.0272,   2.5165
 8891.00,     0.00,  77.9765,   2.7101
 8908.00,     0.00,  81.3037,   2.7646
 8925.00,     0.00,  97.0926,   3.0247
 8941.00,     0.00,  95.5198,   3.0005
 8958.00,     0.00,  96.2457,   3.0186
 8975.00,     0.00,   88.684,   2.8977
 8992.00,     0.00,  89.1074,   2.9037
 9009.00,     0.00,   88.684,   2.9037
 9026.00,     0.00,  87.8975,   2.8856
 9043.00,     0.00,   82.937,   2.8069
 9059.00,     0.00,  79.9123,   2.7585
 9076.00,     0.00,  80.6383,   2.7767
 9093.00,     0.00,  83.7235,   2.8311
 9110.00,     0.00,  84.0259,   2.8372
 9127.00,     0.00,  81.6667,   2.7948
 9144.00,     0.00,  87.2926,   2.8916
 9161.00,     0.00,  92.0111,   2.9763
 9177.00,     0.00,  85.3568,   2.8674
 9194.00,     0.00,  78.9444,   2.7585
 9211.00,     0.00,  76.7062,   2.7162
 9228.00,     0.00,  69.6284,   2.5891
 9245.00,     0.00,  72.6531,   2.6496
 9262.00,     0.00,  89.0469,     2.94
 9279.00,     0.00,  112.216,   3.2969
 9296.00,     0.00,  136.958,   3.6417
 9312.00,     0.00, 148.8148,    3.793
 9329.00,     0.00, 163.3333,   3.9865
 9346.00,     0.00, 169.8062,   4.0712
 9363.00,     0.00, 173.7383,   4.1196
 9380.00,     0.00, 175.0086,   4.1257
 9397.00,     0.00, 179.3037,   4.1741
 9414.00,     0.00, 167.1444,    4.041
 9431.00,     0.00, 162.2444,   3.9926
 9448.00,     0.00, 150.1457,   3.8414
 9464.00,     0.00, 127.4605,   3.5328
 9481.00,     0.00, 111.4901,    3.309
 9498.00,     0.00, 109.0099,   3.2727
 9515.00,     0.00,  91.1037,   3.0005
 9532.00,     0.00,  76.7667,   2.7585
 9549.00,     0.00,  66.4222,   2.5589
 9566.00,     0.00,  51.5528,   2.2564
 9583.00,     0.00,   48.262,   2.1838
 9600.00,     0.00,  43.5314,   2.0749
 9617.00,     0.00,  38.3349,    1.954
 9634.00,     0.00,  36.8165,   1.9116
 9651.00,     0.00,   36.381,   1.9056
 9668.00,     0.00,  39.8654,   1.9963
 9685.00,     0.00,  47.0158,   2.1717
 9702.00,     0.00,   50.718,   2.2504
 9718.00,     0.00,  54.6259,   2.3411
 9735.00,     0.00,  58.9996,   2.4319
 9752.00,     0.00,  60.5543,   2.4681
 9769.00,     0.00,  60.1672,   2.4621
 9786.00,     0.00,  64.4259,   2.5528
 9803.00,     0.00,   58.806,   2.4379
 9820.00,     0.00,  57.2877,   2.4077
 9837.00,     0.00,  47.7962,    2.202
 9854.00,     0.00,  40.4038,   2.0265
 9871.00,     0.00,  41.2568,   2.0447
 9888.00,     0.00,  40.5914,   2.0265
 9905.00,     0.00,   42.382,   2.0749
 9922.00,     0.00,  42.6119,    2.087
 9939.00,     0.00,   55.491,   2.3835
 9956.00,     0.00,  59.5138,   2.4681
 9973.00,     0.00,  68.7815,   2.6557
 9990.00,     0.00,  70.4148,   2.6799
10010.00,     0.00,  79.2469,   2.8493
10020.00,     0.00,  76.0407,   2.7948
10040.00,     0.00,  77.1296,    2.819
10060.00,     0.00,  68.7815,   2.6678
10070.00,     0.00,  55.6967,   2.3956
10090.00,     0.00,  47.0884,    2.202
10110.00,     0.00,  42.0372,    2.081
10130.00,     0.00,   33.326,   1.8572
10140.00,     0.00,  43.0777,   2.1173
10160.00,     0.00,  46.4774,    2.202
10180.00,     0.00,  52.8353,   2.3411
10190.00,     0.00,  60.1551,   2.4984
10210.00,     0.00,  67.5111,   2.6496
10230.00,     0.00,  75.6173,    2.813
10240.00,     0.00,  84.2679,   2.9702
10260.00,     0.00,  74.2864,   2.7888
10280.00,     0.00,  72.1691,   2.7464
10300.00,     0.00,  60.0764,   2.5105
10310.00,     0.00,  51.7222,    2.329
10330.00,     0.00,  47.2517,   2.2322
10350.00,     0.00,  44.4448,   2.1717
10360.00,     0.00,    50.47,   2.3048
10380.00,     0.00,  42.2489,   2.1112
10400.00,     0.00,  41.0632,    2.081
10410.00,     0.00,   35.522,   1.9419
10430.00,     0.00,  33.8947,   1.8995
10450.00,     0.00,  31.4386,    1.833
10470.00,     0.00,    31.36,   1.8269
10480.00,     0.00,  32.1827,   1.8511
10500.00,     0.00,  34.3726,   1.9116
10520.00,     0.00,  37.3247,   1.9963
10530.00,     0.00,    40.18,   2.0749
10550.00,     0.00,  43.3499,   2.1596
10570.00,     0.00,  43.4406,   2.1596
10590.00,     0.00,  45.4853,   2.2141
10600.00,     0.00,  57.9531,   2.4923
10620.00,     0.00,  73.6815,    2.819
10640.00,     0.00,  68.1765,   2.7162
10650.00,     0.00,  74.9519,   2.8493
10670.00,     0.00,  61.1593,    2.571
10690.00,     0.00,  58.6911,   2.5226
10700.00,     0.00,   50.349,   2.3411
10720.00,     0.00,  53.9665,   2.4258
10740.00,     0.00,  53.1317,   2.4077
10760.00,     0.00,  59.0722,   2.5347
10770.00,     0.00,  54.0452,   2.4319
10790.00,     0.00,  54.4989,    2.444
10810.00,     0.00,  51.2322,   2.3714
10820.00,     0.00,  47.1791,   2.2746
10840.00,     0.00,  53.1015,   2.4137
10860.00,     0.00,  53.8819,   2.4319
10880.00,     0.00,  55.9689,   2.4802
10890.00,     0.00,  55.1099,   2.4681
10910.00,     0.00,    59.78,    2.571
10930.00,     0.00,  63.1556,   2.6496
10940.00,     0.00,  66.2407,   2.7041
10960.00,     0.00,  73.8025,   2.8614
10980.00,     0.00,  72.3506,   2.8372
10990.00,     0.00,  70.2938,   2.8009
11010.00,     0.00,  62.9741,   2.6496
11030.00,     0.00,  58.4491,   2.5589
11050.00,     0.00,  50.0526,   2.3593
11060.00,     0.00,  53.4826,    2.444
11080.00,     0.00,  50.3248,   2.3774
11100.00,     0.00,  52.5933,   2.4319
11110.00,     0.00,  53.5068,    2.456
11130.00,     0.00,  51.5407,   2.4137
11150.00,     0.00,  38.4862,    2.081
11170.00,     0.00,   36.756,   2.0265
11180.00,     0.00,  31.8923,   1.8995
11200.00,     0.00,  24.4879,   1.6636
11220.00,     0.00,  26.3632,   1.7301
11230.00,     0.00,  28.9221,   1.8148
11250.00,     0.00,  27.6275,   1.7725
11270.00,     0.00,  29.9323,   1.8451
11290.00,     0.00,  35.3284,   2.0023
11300.00,     0.00,  34.8807,   1.9963
11320.00,     0.00,  36.4536,   2.0447
11340.00,     0.00,  34.2456,   1.9842
11350.00,     0.00,  30.9607,   1.8814
11370.00,     0.00,  31.2874,   1.8874
11390.00,     0.00,  31.2269,   1.8874
11400.00,     0.00,  32.4489,   1.9298
11420.00,     0.00,  35.8486,   2.0386
11440.00,     0.00,  40.0953,   2.1536
11460.00,     0.00,  40.6881,   2.1717
11470.00,     0.00,  45.1647,   2.2867
11490.00,     0.00,  44.9227,   2.2746
11510.00,     0.00,  45.3583,   2.2927
11520.00,     0.00,  45.7575,   2.3109
11540.00,     0.00,   43.489,   2.2564
11560.00,     0.00,  44.7775,   2.2867
11580.00,     0.00,  51.8251,   2.4621
11590.00,     0.00,  56.2956,   2.5649
11610.00,     0.00,  61.7037,   2.6859
11630.00,     0.00,  65.3333,   2.7646
11640.00,     0.00,  79.6704,    3.067
11660.00,     0.00,  91.4667,   3.2909
11680.00,     0.00, 105.0778,   3.5207
11700.00,     0.00, 118.7494,   3.7385
11710.00,     0.00, 129.3963,   3.9079
11730.00,     0.00, 136.3531,   4.0107
11750.00,     0.00, 123.1049,   3.8172
11760.00,     0.00,  95.7012,   3.3756
11780.00,     0.00,  74.8309,   2.9884
11800.00,     0.00,  61.8852,   2.7101
11820.00,     0.00,  45.1284,   2.3169
11830.00,     0.00,  36.0483,   2.0749
11850.00,     0.00,  29.9021,   1.8874
11870.00,     0.00,  27.3251,   1.8088
11880.00,     0.00,  21.5298,   1.6091
11900.00,     0.00,  20.7796,   1.5789
11920.00,     0.00,  21.8564,   1.6212
11940.00,     0.00,  27.0831,   1.8027
11950.00,     0.00,  37.9659,   2.1415
11970.00,     0.00,  45.1102,    2.329
11990.00,     0.00,  51.1173,   2.4863
12000.00,     0.00,  62.8531,   2.7646
12020.00,     0.00,  82.2716,   3.1578
12040.00,     0.00, 107.0741,   3.6054
12060.00,     0.00, 120.9877,   3.8353
12070.00,     0.00, 131.1506,   3.9986
12090.00,     0.00, 128.9123,   3.9623
12110.00,     0.00, 111.9741,   3.6962
12120.00,     0.00,  91.4667,   3.3453
12140.00,     0.00,  68.6605,   2.8977
12160.00,     0.00,  58.2737,   2.6738
12180.00,     0.00,  53.7367,    2.571
12190.00,     0.00,    40.18,   2.2262
12210.00,     0.00,   39.194,   2.1959
12230.00,     0.00,   37.367,   2.1475
12240.00,     0.00,  45.6849,   2.3774
12260.00,     0.00,  47.8809,   2.4319
12280.00,     0.00,  53.7004,   2.5831
12300.00,     0.00,  53.4584,    2.577
12310.00,     0.00,  46.8525,   2.4137
12330.00,     0.00,  42.3396,   2.2988
12350.00,     0.00,  32.2069,   2.0023
12360.00,     0.00,  22.6912,   1.6817
12380.00,     0.00,  24.7601,   1.7604
12400.00,     0.00,  16.6721,   1.4458
12420.00,     0.00,  15.4562,   1.3914
12430.00,     0.00,  14.8573,   1.3672
12450.00,     0.00,  13.2542,   1.2946
12470.00,     0.00,  12.5162,   1.2522
12490.00,     0.00,  12.9759,   1.2764
12500.00,     0.00,  15.5469,   1.4035
12520.00,     0.00,  15.7102,   1.4095
12540.00,     0.00,  23.1086,    1.712
12550.00,     0.00,  24.8206,   1.7785
12570.00,     0.00,  34.3907,   2.0931
12590.00,     0.00,  36.4233,   2.1475
12610.00,     0.00,  33.6346,   2.0689
12620.00,     0.00,  31.4205,   2.0023
12640.00,     0.00,  28.6741,   1.9177
12660.00,     0.00,  27.7183,   1.8874
12670.00,     0.00,  29.4544,   1.9479
12690.00,     0.00,  22.9272,    1.718
12710.00,     0.00,  19.2431,   1.5728
12730.00,     0.00,  19.1826,   1.5668
12740.00,     0.00,  22.2012,   1.6938
12760.00,     0.00,   29.884,    1.966
12780.00,     0.00,  34.7537,   2.1233
12790.00,     0.00,  48.2196,   2.5044
12810.00,     0.00,  53.2104,   2.6315
12830.00,     0.00,  53.7004,   2.6375
12850.00,     0.00,  45.7636,   2.4319
12860.00,     0.00,  40.4462,   2.2927
12880.00,     0.00,  32.2856,   2.0568
12900.00,     0.00,   26.466,   1.8632
12920.00,     0.00,  27.0528,   1.8874
12930.00,     0.00,  23.6531,   1.7604
12950.00,     0.00,  21.3846,   1.6757
12970.00,     0.00,   23.036,   1.7362
12980.00,     0.00,  23.3204,   1.7483
13000.00,     0.00,  23.2236,   1.7483
13020.00,     0.00,  25.2864,   1.8269
13040.00,     0.00,  20.5679,   1.6515
13050.00,     0.00,  26.1757,   1.8632
13070.00,     0.00,  25.0565,   1.8209
13090.00,     0.00,  23.9677,   1.7785
13100.00,     0.00,  19.5456,   1.6091
13120.00,     0.00,   14.089,   1.3672
13140.00,     0.00,  14.9843,   1.4156
13160.00,     0.00,  13.6777,   1.3551
13170.00,     0.00,  15.0509,   1.4216
13190.00,     0.00,  18.8983,    1.591
13210.00,     0.00,  17.0109,   1.5123
13230.00,     0.00,  22.0137,    1.718
13240.00,     0.00,  27.0347,   1.8995
13260.00,     0.00,  30.2348,   2.0205
13280.00,     0.00,  32.9147,   2.1112
13290.00,     0.00,  30.2772,   2.0265
13310.00,     0.00,   29.152,   1.9902
13330.00,     0.00,  26.1333,   1.8814
13350.00,     0.00,  28.7467,   1.9721
13360.00,     0.00,  29.5028,   1.9963
13380.00,     0.00,  22.5219,   1.7483
13400.00,     0.00,  21.1728,   1.6999
13410.00,     0.00,  22.6307,   1.7604
13430.00,     0.00,  24.4214,    1.833
13450.00,     0.00,  25.8793,   1.8814
13470.00,     0.00,  30.5433,   2.0447
13480.00,     0.00,  36.6532,   2.2443
13500.00,     0.00,   41.281,   2.3774
13520.00,     0.00,  49.7804,   2.6133
13540.00,     0.00,  51.6194,   2.6738
13550.00,     0.00,   59.284,   2.8674
13570.00,     0.00,  60.4212,   2.8916
13590.00,     0.00,  72.6531,   3.1699
13600.00,     0.00,  71.1407,   3.1396
13620.00,     0.00,  74.7704,   3.2243
13640.00,     0.00,  78.2185,   3.2969
13660.00,     0.00,   68.237,   3.0852
13670.00,     0.00,   68.963,   3.1094
13690.00,     0.00,  61.5827,     2.94
13710.00,     0.00,  48.3043,   2.6012
13720.00,     0.00,  41.1842,   2.4016
13740.00,     0.00,  29.0673,   2.0205
13760.00,     0.00,  27.0226,   1.9479
13780.00,     0.00,  23.7741,   1.8269
13790.00,     0.00,  20.8583,    1.712
13810.00,     0.00,  15.6074,   1.4881
13830.00,     0.00,  13.8954,   1.4035
13850.00,     0.00,  14.0104,   1.4095
13860.00,     0.00,  11.0643,   1.2522
13880.00,     0.00,  11.7963,   1.2946
13900.00,     0.00,   9.5459,   1.1675
13910.00,     0.00,   8.2635,   1.0828
13930.00,     0.00,   7.7009,   1.0465
13950.00,     0.00,   9.4612,   1.1675
13970.00,     0.00,  12.6069,    1.343
13980.00,     0.00,   19.479,   1.6696
14000.00,     0.00,  23.1086,   1.8209
14020.00,     0.00,  30.7914,   2.1052
14040.00,     0.00,  30.8579,   2.1112
14050.00,     0.00,  33.2837,   2.1899
14070.00,     0.00,  31.1664,   2.1233
14090.00,     0.00,  30.2772,   2.0931
14100.00,     0.00,   24.627,   1.8874
14120.00,     0.00,  23.0542,   1.8269
14140.00,     0.00,  21.7959,   1.7785
14160.00,     0.00,  23.3022,   1.8451
14170.00,     0.00,  25.5465,   1.9298
14190.00,     0.00,  29.2972,   2.0689
14210.00,     0.00,  30.1925,   2.0991
14230.00,     0.00,  37.3368,   2.3351
14240.00,     0.00,  38.3954,   2.3714
14260.00,     0.00,   40.797,    2.444
14280.00,     0.00,   34.421,   2.2504
14290.00,     0.00,  32.2856,   2.1838
14310.00,     0.00,  27.4823,   2.0144
14330.00,     0.00,   24.137,   1.8935
14350.00,     0.00,  14.6214,     1.47
14360.00,     0.00,  15.2323,   1.5002
14380.00,     0.00,   12.002,   1.3309
14400.00,     0.00,  12.3286,   1.3551
14420.00,     0.00,  12.0564,   1.3369
14430.00,     0.00,  13.8773,   1.4398
14450.00,     0.00,  14.8028,   1.4881
14470.00,     0.00,  18.2873,   1.6575
14480.00,     0.00,  19.7028,    1.712
14500.00,     0.00,  21.1728,   1.7785
14520.00,     0.00,  22.6428,   1.8451
14540.00,     0.00,  24.8025,   1.9298
14550.00,     0.00,  21.3906,   1.7967
14570.00,     0.00,  19.7815,   1.7301
14590.00,     0.00,  15.5893,   1.5365
14610.00,     0.00,  14.5609,   1.4881
14620.00,     0.00,  11.2216,   1.3067
14640.00,     0.00,   9.9633,    1.228
14660.00,     0.00,  10.7316,   1.2764
14670.00,     0.00,    9.431,   1.1978
14690.00,     0.00,  12.8065,   1.3974
14710.00,     0.00,  12.0685,   1.3551
14730.00,     0.00,  22.3585,   1.8511
14740.00,     0.00,  25.9398,   1.9963
14760.00,     0.00,  38.6072,   2.4379
14780.00,     0.00,  52.1638,   2.8251
14800.00,     0.00,  60.7358,   3.0428
14810.00,     0.00,  72.5321,   3.3393
14830.00,     0.00,  76.8272,   3.4421
14850.00,     0.00,  71.7457,   3.3332
14870.00,     0.00,  64.9099,   3.1699
14880.00,     0.00,   68.358,   3.2606
14900.00,     0.00,  60.2398,    3.061
14920.00,     0.00,  59.3444,   3.0428
14930.00,     0.00,  48.5523,   2.7343
14950.00,     0.00,  45.3825,   2.6496
14970.00,     0.00,  41.3596,   2.5407
14990.00,     0.00,  29.8779,   2.1596
15000.00,     0.00,  24.1431,   1.9479
15020.00,     0.00,  22.9393,   1.8995
15040.00,     0.00,  14.0164,   1.4881
15060.00,     0.00,  11.9778,   1.3732
15070.00,     0.00,   9.8726,   1.2462
15090.00,     0.00,    7.344,   1.0707
15110.00,     0.00,    6.612,   1.0223
15120.00,     0.00,   6.6483,   1.0284
15140.00,     0.00,   7.2956,   1.0768
15160.00,     0.00,   7.7916,   1.1131
15180.00,     0.00,   7.8098,   1.1131
15190.00,     0.00,   8.3058,   1.1494
15210.00,     0.00,  12.5948,   1.4156
15230.00,     0.00,   8.7414,   1.1796
15250.00,     0.00,  14.2705,   1.5063
15260.00,     0.00,  15.6498,   1.5789
15280.00,     0.00,  17.3315,   1.6696
15300.00,     0.00,  18.0151,   1.6999
15320.00,     0.00,  17.5674,   1.6817
EndData:

