Comment:    Automatically converted from EXFOR
            by the IAEA-NDS EXFOR Web-Retrieval System
            program version-2012/10/18, by V.Zerkin.
            "Excited levels between 11.7 and 13.0 MeV of 22Ne
             investigated by 18O+alpha reaction"
            S.Gorodetzky,  M.Port,  J.Graff,  J.M.Thirion, 
            G.Chouraqui
            EXFOR: D0272002    Created: 2006-06-24  Updated: 2006-06-27
            X4Reaction:8-O-18(A,EL)8-O-18,,DA; X4Points:927
            Data converted from C.M. to Lab. 
            LevelEnergy: 0.00

Version:      R33
X4Number:     D0272002
Source:       S.Gorodetzky+(1968), Jour. Journal de Physique, Vol.29, p.271
Reaction:     18O(a,a0)18O
Distribution: Energy
Sigfactors:   1.00, 0.00
Enfactors:    1.00, 0.00, 0.00, 0.00
Units:        mb
Composition:
Masses:       4.0, 18.0, 4.0, 18.0
Zeds:         2, 8, 2, 8
Qvalue:       -0.0, 0.00, 0.00, 0.00, 0.00
Theta:        163.3
Data:
 2487.00,     0.00,  48.8879,   7.3335
 2517.00,     0.00,  48.4679,   7.2705
 2532.00,     0.00,  44.4099,   6.6615
 2551.00,     0.00,   39.901,   5.9851
 2560.00,     0.00,  29.9381,   4.4907
 2574.00,     0.00,  36.7509,   5.5126
 2581.00,     0.00,  46.7261,   7.0092
 2591.00,     0.00,  56.2566,   8.4385
 2606.00,     0.00,  64.8545,   9.7282
 2617.00,     0.00,   59.907,   8.9864
 2629.00,     0.00,  55.8428,   8.3767
 2648.00,     0.00,  51.7848,   7.7677
 2671.00,     0.00,  47.7329,   7.1599
 2679.00,     0.00,  40.0368,   6.0055
 2694.00,     0.00,  40.5063,   6.0759
 2717.00,     0.00,   31.019,   4.6528
 2728.00,     0.00,  28.3136,    4.247
 2736.00,     0.00,  34.6632,   5.1995
 2743.00,     0.00,  40.5619,   6.0843
 2750.00,     0.00,  48.7273,   7.3094
 2757.00,     0.00,  52.3592,   7.8536
 2764.00,     0.00,  49.1968,   7.3798
 2783.00,     0.00,  48.3073,   7.2464
 2798.00,     0.00,  47.4179,    7.113
 2810.00,     0.00,  45.1696,   6.7758
 2822.00,     0.00,  38.3815,   5.7572
 2841.00,     0.00,  37.0412,   5.5562
 2852.00,     0.00,   33.434,   5.0151
 2867.00,     0.00,  31.6366,   4.7455
 2882.00,     0.00,  33.4649,   5.0197
 2893.00,     0.00,  35.7441,   5.3616
 2911.00,     0.00,  42.5569,   6.3835
 2922.00,     0.00,  47.1029,   7.0654
 2926.00,     0.00,  52.0936,    7.814
 2929.00,     0.00,  57.0781,    8.562
 2940.00,     0.00,  59.8082,   8.9709
 2947.00,     0.00,   62.075,   9.3113
 2951.00,     0.00,  65.7192,   9.8579
 2970.00,     0.00,  59.3882,   8.9085
 2986.00,     0.00,  53.9713,   8.0957
 2997.00,     0.00,  52.6248,   7.8937
 3012.00,     0.00,  48.5606,   7.2841
 3020.00,     0.00,   45.849,   6.8777
 3046.00,     0.00,  41.3463,   6.2019
 3058.00,     0.00,  35.9232,   5.3885
 3070.00,     0.00,  32.3099,   4.8465
 3089.00,     0.00,  27.3501,   4.1025
 3104.00,     0.00,  25.5527,   3.8329
 3116.00,     0.00,  19.6725,   2.9509
 3127.00,     0.00,  16.0592,   2.4089
 3142.00,     0.00,  15.1698,   2.2755
 3157.00,     0.00,  17.4551,   2.6183
 3179.00,     0.00,  29.2586,   4.3888
 3197.00,     0.00,  42.8719,   6.4305
 3207.00,     0.00,  48.3259,   7.2489
 3226.00,     0.00,  54.6878,   8.2032
 3240.00,     0.00,  63.3103,   9.4966
 3255.00,     0.00,  60.6112,    9.092
 3274.00,     0.00,  59.7217,   8.9586
 3286.00,     0.00,  52.9398,   7.9413
 3301.00,     0.00,  51.5995,   7.7399
 3316.00,     0.00,  45.2684,   6.7906
 3328.00,     0.00,  39.3945,   5.9092
 3344.00,     0.00,  31.2537,   4.6881
 3362.00,     0.00,  30.3704,   4.5556
 3381.00,     0.00,   29.481,   4.4221
 3393.00,     0.00,  29.0425,   4.3564
 3404.00,     0.00,  31.3216,   4.6982
 3422.00,     0.00,  30.4322,   4.5648
 3434.00,     0.00,  32.2605,   4.8391
 3453.00,     0.00,  25.9356,   3.8903
 3468.00,     0.00,  22.7794,   3.4169
 3487.00,     0.00,  16.4607,   2.4691
 3503.00,     0.00,  10.5867,    1.588
 3518.00,     0.00,   8.7893,   1.3184
 3529.00,     0.00,   7.8937,   1.1841
 3548.00,     0.00,   11.087,   1.6631
 3566.00,     0.00,  19.7158,   2.9574
 3581.00,     0.00,  24.2618,   3.6393
 3599.00,     0.00,  26.0962,   3.9144
 3611.00,     0.00,  23.3909,   3.5086
 3626.00,     0.00,  21.5935,    3.239
 3648.00,     0.00,  24.3359,   3.6504
 3663.00,     0.00,  31.1549,   4.6732
 3677.00,     0.00,   33.434,   5.0151
 3696.00,     0.00,  30.7349,   4.6102
 3708.00,     0.00,  24.4038,   3.6606
 3727.00,     0.00,  21.7046,   3.2557
 3746.00,     0.00,  17.6466,    2.647
 3762.00,     0.00,  12.6806,   1.9021
 3773.00,     0.00,   9.9752,   1.4963
 3792.00,     0.00,   7.7331,     1.16
 3811.00,     0.00,   5.9388,   0.8909
 3826.00,     0.00,   4.1427,   0.6214
 3845.00,     0.00,   4.6164,   0.6925
 3863.00,     0.00,  13.2488,   1.9873
 3876.00,     0.00,  31.3896,   4.7084
 3901.00,     0.00,  49.0856,   7.3631
 3915.00,     0.00,   63.125,   9.4688
 3934.00,     0.00,  66.7692,  10.0154
 3950.00,     0.00,  57.7514,   8.6627
 3962.00,     0.00,  46.8867,   7.0333
 3977.00,     0.00,  41.4698,   6.2205
 3999.00,     0.00,  43.7552,   6.5633
 4014.00,     0.00,  46.4914,   6.9734
 4033.00,     0.00,   46.967,   7.0451
 4059.00,     0.00,  46.5408,   6.9814
 4071.00,     0.00,  44.7434,   6.7115
 4082.00,     0.00,  39.3142,   5.8971
 4090.00,     0.00,  34.7929,   5.2189
 4106.00,     0.00,  26.2012,   3.9302
 4114.00,     0.00,  18.5051,   2.7758
 4126.00,     0.00,   9.4564,   1.4185
 4141.00,     0.00,    7.659,   1.1489
 4152.00,     0.00,  16.2816,   2.4422
 4162.00,     0.00,  28.5298,   4.2795
 4172.00,     0.00,  38.0541,   5.7081
 4180.00,     0.00,  41.6922,   6.2538
 4198.00,     0.00,  44.4284,   6.6646
 4216.00,     0.00,  50.7903,   7.6189
 4224.00,     0.00,  55.7872,   8.3681
 4238.00,     0.00,  68.0663,    10.21
 4245.00,     0.00,  77.0842,  11.5626
 4255.00,     0.00,  91.1669,   13.675
 4265.00,     0.00, 108.3997,  16.2599
 4278.00,     0.00, 136.5033,  20.4755
 4291.00,     0.00,  158.245,  23.7367
 4315.00,     0.00, 181.8396,  27.2759
 4325.00,     0.00, 156.5155,  23.4773
 4335.00,     0.00, 113.8968,  17.0845
 4345.00,     0.00,  94.4405,  14.1661
 4356.00,     0.00,  89.9316,  13.4897
 4368.00,     0.00,  82.2108,  12.3316
 4376.00,     0.00,  76.7754,  11.5163
 4392.00,     0.00,  66.3986,   9.9598
 4403.00,     0.00,  59.1535,   8.8727
 4416.00,     0.00,  47.8379,   7.1754
 4427.00,     0.00,  38.7892,   5.8184
 4435.00,     0.00,  40.6113,   6.0917
 4450.00,     0.00,  39.2709,   5.8906
 4461.00,     0.00,  40.6421,   6.0963
 4476.00,     0.00,  41.5625,   6.2341
 4491.00,     0.00,   40.673,    6.101
 4506.00,     0.00,  38.8756,   5.8313
 4520.00,     0.00,  50.2221,   7.5336
 4531.00,     0.00,  61.1053,   9.1661
 4545.00,     0.00,  74.7371,  11.2106
 4558.00,     0.00,  93.7611,  14.0642
 4571.00,     0.00, 121.4323,  18.2148
 4576.00,     0.00, 157.2567,  23.5885
 4590.00,     0.00, 177.2072,  26.5811
 4610.00,     0.00, 157.2567,  23.5885
 4620.00,     0.00, 127.7942,  19.1691
 4629.00,     0.00,  101.976,  15.2964
 4635.00,     0.00,  78.8754,  11.8313
 4648.00,     0.00,  49.9071,   7.4861
 4654.00,     0.00,  26.8065,    4.021
 4673.00,     0.00,  13.6874,   2.0531
 4685.00,     0.00,  12.3409,   1.8511
 4700.00,     0.00,  13.7121,   2.0568
 4714.00,     0.00,  17.8072,   2.6711
 4725.00,     0.00,  28.6966,   4.3045
 4735.00,     0.00,  43.2054,   6.4805
 4749.00,     0.00,  52.2851,   7.8431
 4760.00,     0.00,  57.7329,   8.6602
 4771.00,     0.00,  63.6192,   9.5429
 4786.00,     0.00,  65.4722,   9.8208
 4797.00,     0.00,  67.7575,  10.1636
 4808.00,     0.00,  72.7606,  10.9141
 4819.00,     0.00,  76.4048,  11.4607
 4829.00,     0.00,  83.6314,  12.5447
 4844.00,     0.00,  82.2726,  12.3409
 4867.00,     0.00,  83.2608,  12.4891
 4878.00,     0.00,   89.561,  13.4341
 4893.00,     0.00,  89.1286,  13.3693
 4903.00,     0.00,   96.417,  14.4626
 4915.00,     0.00,  98.7024,  14.8054
 4929.00,     0.00, 100.4936,   15.074
 4944.00,     0.00, 110.0673,  16.5101
 4958.00,     0.00,  122.297,  18.3446
 4965.00,     0.00,  68.3752,  10.2563
 4979.00,     0.00,  37.5847,   5.6377
 4989.00,     0.00,   7.6899,   1.1535
 5008.00,     0.00,   9.5182,   1.4277
 5026.00,     0.00,   9.5429,   1.4314
 5037.00,     0.00,  14.0827,   2.1124
 5048.00,     0.00,  19.9875,   2.9981
 5059.00,     0.00,  25.8924,   3.8839
EndData:

