Comment:    Automatically converted from EXFOR on 2019-04-01,14:35:08
            by the IAEA-NDS EXFOR Web-Retrieval System
            program ver-2019-02-20 (V.Zerkin).
            X4Title: "Cross-section measurements of the 14N(a,p)17O and
             14N(a,a)14N reactions between 3.5 and 6 MeV"
            X4Author: G.Terwagne, G.Genard, M.Yedji, G.G.Ross
            EXFOR: D0565002    Created: 2009-03-23  Updated: 2009-05-08
            X4Reaction:7-N-14(A,EL)7-N-14,,DA; X4Points:121
            ENSDF:LevelEnergy=0.00
            Systematic uncertainty: ErrSys=3.0%
            AME2016: M1=4.002603254 M2=14.003074004 M3=4.002603254 M4=14.003074004

Version:      R33
X4Number:     D0565002 20090508
Source:       G.Terwagne+(2008), Jour. Journal of Applied Physics, Vol.104, p.084909
Reaction:     14N(a,a0)14N
Distribution: Energy
Sigfactors:   1.00, 0.03
Enfactors:    1.00, 0.00, 0.00, 0.00
Units:        mb
Composition:
Masses:       4.0, 14.0, 4.0, 14.0
Zeds:         2, 7, 2, 7
Qvalue:       0.0, 0.00, 0.00, 0.00, 0.00
Theta:        165
Data:
 3415.50,     0.00,    42.59,   2.6256
 3465.40,     0.00,    39.18,   2.4085
 3509.00,     0.00,    36.95,   2.3519
 3515.40,     0.00,    40.51,   2.4892
 3531.20,     0.00,    37.40,    2.301
 3559.10,     0.00,    41.37,   2.6872
 3565.40,     0.00,    49.12,   2.9973
 3582.30,     0.00,    45.78,    2.857
 3609.30,     0.00,    42.74,   2.8553
 3615.20,     0.00,    40.82,    2.518
 3632.70,     0.00,    44.04,   2.9693
 3659.30,     0.00,    58.96,   4.0506
 3665.20,     0.00,    73.77,   4.4612
 3683.10,     0.00,    86.39,   6.0916
 3709.40,     0.00,    97.07,   7.2683
 3715.60,     0.00,   102.18,    6.137
 3733.40,     0.00,    68.71,   5.5175
 3759.50,     0.00,    35.84,   2.9395
 3761.20,     0.00,    44.50,   2.6978
 3783.60,     0.00,    23.22,   1.8961
 3809.50,     0.00,    20.41,   1.5537
 3815.40,     0.00,    26.68,    1.679
 3860.50,     0.00,    23.69,   1.6972
 3861.60,     0.00,    30.77,   1.8862
 3910.40,     0.00,    30.94,   2.1044
 3915.50,     0.00,    33.49,   2.0801
 3959.30,     0.00,    67.86,   4.3359
 3962.10,     0.00,    76.70,   4.6074
 4010.20,     0.00,    79.94,   5.1047
 4012.60,     0.00,    81.09,   4.8658
 4060.10,     0.00,    50.98,   3.3471
 4062.50,     0.00,    57.03,   3.4378
 4085.10,     0.00,    40.84,   2.7494
 4110.10,     0.00,    24.16,   1.6148
 4112.80,     0.00,    28.03,   1.7261
 4135.50,     0.00,    22.76,   1.4691
 4161.30,     0.00,    20.23,   1.2282
 4162.10,     0.00,    22.44,   1.3962
 4186.00,     0.00,    15.43,   0.9425
 4187.50,     0.00,    17.10,   1.0737
 4211.20,     0.00,     9.97,   0.6218
 4236.40,     0.00,     5.50,   0.3644
 4236.60,     0.00,     6.16,   0.4212
 4261.10,     0.00,     3.44,   0.2277
 4261.50,     0.00,     3.16,   0.2421
 4286.50,     0.00,     3.18,   0.2419
 4286.80,     0.00,     3.04,    0.222
 4311.10,     0.00,     4.44,    0.291
 4311.50,     0.00,     4.30,   0.3146
 4336.40,     0.00,     7.17,   0.4844
 4337.10,     0.00,     6.42,   0.4067
 4387.40,     0.00,     9.87,   0.6121
 4387.50,     0.00,     9.56,   0.5944
 4410.90,     0.00,    13.67,   0.8347
 4412.70,     0.00,    13.21,   0.8081
 4435.90,     0.00,    31.16,   1.8805
 4437.40,     0.00,    26.25,   1.5963
 4463.20,     0.00,    42.60,   2.6143
 4487.50,     0.00,    26.54,   1.6588
 4510.90,     0.00,     7.74,   0.5315
 4537.60,     0.00,     3.84,   0.3092
 4561.10,     0.00,     6.78,   0.4677
 4587.60,     0.00,    11.54,   0.7323
 4611.40,     0.00,    17.85,   1.1073
 4637.60,     0.00,    21.37,   1.3117
 4661.70,     0.00,    20.59,   1.2675
 4689.70,     0.00,    18.85,   1.1594
 4712.00,     0.00,    18.09,   1.1038
 4739.60,     0.00,    18.35,   1.1111
 4762.30,     0.00,    17.42,   1.0691
 4789.50,     0.00,    17.99,   1.1053
 4812.70,     0.00,    17.30,   1.0597
 4839.50,     0.00,    20.39,   1.2482
 4863.00,     0.00,    22.00,   1.3692
 4889.60,     0.00,    29.57,    1.837
 4913.00,     0.00,    39.60,   2.4023
 4939.60,     0.00,    67.38,   4.0652
 4963.30,     0.00,    86.72,    5.195
 4988.80,     0.00,    85.31,   5.1043
 5012.60,     0.00,    73.66,    4.407
 5038.90,     0.00,    75.44,   4.5145
 5062.90,     0.00,    73.86,   4.4375
 5088.90,     0.00,    81.58,   4.9143
 5113.10,     0.00,    84.56,   5.1044
 5139.00,     0.00,    88.03,   5.2983
 5163.40,     0.00,    72.73,   4.3874
 5189.10,     0.00,    59.21,   3.5951
 5213.60,     0.00,    47.13,   2.8484
 5239.20,     0.00,    44.49,   2.7202
 5263.90,     0.00,    39.11,   2.3649
 5289.30,     0.00,    39.42,   2.4161
 5314.10,     0.00,    36.44,   2.2037
 5339.30,     0.00,    36.27,   2.2286
 5364.40,     0.00,    33.21,   2.0508
 5389.40,     0.00,    33.13,    2.052
 5414.60,     0.00,    29.77,   1.8452
 5439.50,     0.00,    33.04,   2.0422
 5464.80,     0.00,    33.22,   2.0507
 5489.60,     0.00,    38.39,   2.3644
 5515.10,     0.00,    38.47,   2.3633
 5539.70,     0.00,    41.51,   2.5413
 5565.30,     0.00,    41.11,   2.5249
 5589.80,     0.00,    44.11,   2.6924
 5615.50,     0.00,    41.77,   2.5597
 5639.80,     0.00,    47.78,   2.9168
 5665.10,     0.00,    42.31,   2.6297
 5678.90,     0.00,    45.52,   2.8164
 5689.90,     0.00,    61.63,   3.7377
 5704.00,     0.00,    77.37,   4.6979
 5715.30,     0.00,    78.64,   4.7794
 5740.90,     0.00,    70.20,   4.2465
 5765.50,     0.00,    74.18,   4.5109
 5790.90,     0.00,    80.96,   4.8789
 5815.60,     0.00,    84.28,   5.1085
 5841.00,     0.00,    81.81,   4.9667
 5865.80,     0.00,    80.20,   4.8455
 5891.10,     0.00,    68.12,   4.1546
 5916.00,     0.00,    73.86,   4.4934
 5941.20,     0.00,    79.52,   4.8333
 5966.20,     0.00,    88.67,   5.3781
 5991.30,     0.00,    86.80,   5.2385
EndData:
