Comment:    Automatically converted from EXFOR at 2020-10-16,16:02:38
            by the IAEA-NDS EXFOR Web-Retrieval System,
            program X4toR33 ver-2020-05-11 (V.Zerkin).
            X4Title: "N14+He4 and O16+He3 Differential Cross Sections."
            X4Author: E.A.Silverstein, S.R.Salisbury, G.Hardie, L.D.Oppliger
            EXFOR: C1008002    Created: 2004-04-06  Updated: 2005-09-26
            X4Reaction:7-N-14(A,EL)7-N-14,,DA; X4Points:674
            Converted from C.M. to Lab.: Sigma, Theta
            SigmaLab=SigmaCM/1.9226313
            ThetaLab=166.1 ThetaCM:170.0
            ENSDF:LevelEnergy=0.00
            AME2016: M1=4.002603254 M2=14.003074004 M3=4.002603254 M4=14.003074004

Version:      R33
X4Number:     C1008002 20050926
Source:       E.A.Silverstein+(1961), Physical Review, Vol.124, p.868
Reaction:     14N(a,a0)14N
Distribution: Energy
Sigfactors:   1.00, 0.00
Enfactors:    1.00, 0.00, 0.00, 0.00
Units:        mb
Composition:
Masses:       4.0, 14.0, 4.0, 14.0
Zeds:         2, 7, 2, 7
Qvalue:       0.0, 0.00, 0.00, 0.00, 0.00
Theta:        166.1
Data:
   923.30,      0.00,  243.0523,      0.00
   925.40,      0.00,  248.6176,      0.00
   927.10,      0.00,  238.9954,      0.00
   928.50,      0.00,  236.0307,      0.00
   931.20,      0.00,  236.9669,      0.00
   933.00,      0.00,  244.8727,      0.00
   935.00,      0.00,  237.9031,      0.00
   937.00,      0.00,  234.8864,      0.00
   939.70,      0.00,  234.2103,      0.00
   940.20,      0.00,  230.2574,      0.00
   943.40,      0.00,  229.2171,      0.00
   945.20,      0.00,  231.8177,      0.00
   947.00,      0.00,  229.8413,      0.00
   949.40,      0.00,  231.7657,      0.00
   951.70,      0.00,  232.0778,      0.00
   953.10,      0.00,  225.7843,      0.00
   956.10,      0.00,  230.7255,      0.00
   957.50,      0.00,  226.4085,      0.00
   959.30,      0.00,  227.0326,      0.00
   961.70,      0.00,  227.3447,      0.00
   963.70,      0.00,  220.6871,      0.00
   965.70,      0.00,  222.6636,      0.00
   967.50,      0.00,  222.6116,      0.00
   969.90,      0.00,   224.588,      0.00
   971.90,      0.00,  220.5831,      0.00
   975.10,      0.00,  219.2308,      0.00
   976.80,      0.00,  214.5497,      0.00
   979.00,      0.00,  219.4909,      0.00
   983.30,      0.00,  218.7627,      0.00
   984.90,      0.00,  222.7156,      0.00
   986.90,      0.00,  217.4104,      0.00
   988.60,      0.00,  214.7578,      0.00
   991.30,      0.00,   215.694,      0.00
   992.40,      0.00,  212.3652,      0.00
   995.40,      0.00,  212.9894,      0.00
   996.50,      0.00,  204.7194,      0.00
   998.80,      0.00,  206.6959,      0.00
  1000.60,      0.00,  210.9609,      0.00
  1003.00,      0.00,  213.5615,      0.00
  1004.40,      0.00,  206.5919,      0.00
  1006.20,      0.00,   207.268,      0.00
  1009.10,      0.00,  203.5752,      0.00
  1009.60,      0.00,  196.6056,      0.00
  1012.60,      0.00,  203.8352,      0.00
  1014.70,      0.00,  204.8235,      0.00
  1016.70,      0.00,  201.4947,      0.00
  1018.80,      0.00,  199.4662,      0.00
  1020.50,      0.00,  197.1257,      0.00
  1022.90,      0.00,  198.7381,      0.00
  1024.90,      0.00,  194.7851,      0.00
  1026.40,      0.00,  200.4024,      0.00
  1028.80,      0.00,  199.3622,      0.00
  1030.50,      0.00,  193.0687,      0.00
  1032.20,      0.00,  195.6693,      0.00
  1034.90,      0.00,  195.3053,      0.00
  1037.30,      0.00,  196.2935,      0.00
  1038.40,      0.00,  192.2886,      0.00
  1040.50,      0.00,  194.5771,      0.00
  1042.50,      0.00,  191.2483,      0.00
  1044.80,      0.00,  189.5839,      0.00
  1046.30,      0.00,  192.8607,      0.00
  1048.40,      0.00,  189.1678,      0.00
  1051.00,      0.00,  190.7802,      0.00
  1052.80,      0.00,  188.4917,      0.00
  1054.90,      0.00,  191.4044,    3.3288
  1056.20,      0.00,  183.4465,      0.00
  1058.30,      0.00,  185.1109,      0.00
  1060.40,      0.00,  187.3994,      0.00
  1062.40,      0.00,  182.7183,      0.00
  1064.20,      0.00,  185.0069,      0.00
  1068.00,      0.00,  184.6428,      0.00
  1070.60,      0.00,  181.6261,      0.00
  1073.60,      0.00,  183.2385,      0.00
  1075.60,      0.00,  182.2502,      0.00
  1077.70,      0.00,  183.8626,      0.00
  1079.20,      0.00,  181.5221,      0.00
  1082.10,      0.00,  179.8057,      0.00
  1083.80,      0.00,  176.4769,      0.00
  1085.90,      0.00,  180.4298,      0.00
  1087.40,      0.00,   176.789,      0.00
  1087.90,      0.00,  173.1481,      0.00
  1091.80,      0.00,  175.7487,      0.00
  1093.80,      0.00,  175.3846,      0.00
  1095.90,      0.00,  174.0323,      0.00
  1097.70,      0.00,  176.6329,      0.00
  1100.30,      0.00,  173.3042,      0.00
  1102.00,      0.00,  174.2924,      0.00
  1103.80,      0.00,  174.2404,      0.00
  1107.30,      0.00,  172.2119,      0.00
  1108.50,      0.00,  174.8645,      0.00
  1110.30,      0.00,  171.5357,      0.00
  1112.30,      0.00,  170.4955,      0.00
  1115.00,      0.00,  170.8076,      0.00
  1116.40,      0.00,   168.155,      0.00
  1118.50,      0.00,  169.4553,      0.00
  1120.50,      0.00,   168.103,      0.00
  1122.60,      0.00,  170.0794,      0.00
  1124.30,      0.00,  166.3866,      0.00
  1126.40,      0.00,  167.6869,      0.00
  1128.40,      0.00,  166.6986,      0.00
  1130.80,      0.00,  168.6231,      0.00
  1132.30,      0.00,  164.9822,      0.00
  1134.30,      0.00,  166.2825,      0.00
  1136.60,      0.00,  163.2658,      0.00
  1138.40,      0.00,  165.2423,      0.00
  1140.50,      0.00,    163.89,      0.00
  1141.90,      0.00,  161.1854,      0.00
  1144.30,      0.00,  162.4857,      0.00
  1146.90,      0.00,  162.1216,      0.00
  1149.00,      0.00,  163.4219,      0.00
  1150.10,      0.00,  159.1049,      0.00
  1152.50,      0.00,  159.1049,      0.00
  1154.30,      0.00,  158.4287,      0.00
  1156.00,      0.00,  154.7359,      0.00
  1158.30,      0.00,  155.0479,      0.00
  1160.70,      0.00,  156.3482,      0.00
  1162.80,      0.00,  157.2844,      0.00
  1164.80,      0.00,  156.2962,      0.00
  1166.90,      0.00,  158.8968,      0.00
  1168.90,      0.00,  156.5563,      0.00
  1171.30,      0.00,  157.8566,      0.00
  1173.00,      0.00,  151.8752,      0.00
  1176.00,      0.00,  156.1402,      0.00
  1178.00,      0.00,  153.1235,      0.00
  1181.00,      0.00,  152.7594,    3.3288
  1183.30,      0.00,  153.0715,      0.00
  1186.30,      0.00,  152.7074,      0.00
  1187.70,      0.00,  149.0665,      0.00
  1190.30,      0.00,  148.3384,      0.00
  1192.10,      0.00,  150.6269,      0.00
  1194.50,      0.00,  154.2677,      0.00
  1196.20,      0.00,  150.5749,      0.00
  1198.30,      0.00,  149.5867,      0.00
  1200.00,      0.00,  149.2226,      0.00
  1202.10,      0.00,  148.8585,      0.00
  1204.40,      0.00,  147.1941,      0.00
  1206.50,      0.00,  145.6858,    1.8204
  1207.70,      0.00,  145.1656,      0.00
  1209.70,      0.00,  144.8016,      0.00
  1212.10,      0.00,  143.4492,      0.00
  1216.20,      0.00,  144.7495,      0.00
  1218.50,      0.00,  143.3452,      0.00
  1220.30,      0.00,  140.6926,      0.00
  1222.10,      0.00,  143.3452,      0.00
  1224.10,      0.00,  143.2932,      0.00
  1226.50,      0.00,   142.253,      0.00
  1228.20,      0.00,  138.9242,      0.00
  1230.50,      0.00,  139.6003,      0.00
  1232.30,      0.00,  141.2127,      0.00
  1233.80,      0.00,   137.884,      0.00
  1235.80,      0.00,  138.5081,      0.00
  1238.50,      0.00,  138.5081,      0.00
  1240.60,      0.00,  140.1205,      0.00
  1242.60,      0.00,  137.7799,      0.00
  1244.70,      0.00,  139.3923,      0.00
  1246.40,      0.00,  135.4394,      0.00
  1248.50,      0.00,  136.6877,      0.00
  1250.80,      0.00,  134.3471,      0.00
  1252.30,      0.00,  136.6877,      0.00
  1254.60,      0.00,  135.6474,      0.00
  1256.40,      0.00,   133.983,      0.00
  1259.00,      0.00,  130.6023,      0.00
  1260.80,      0.00,  132.9428,      0.00
  1263.10,      0.00,  132.5787,      0.00
  1264.90,      0.00,  134.1911,      0.00
  1266.70,      0.00,  131.8506,      0.00
  1268.40,      0.00,  130.1862,      0.00
  1271.10,      0.00,  132.4747,      0.00
  1272.80,      0.00,  131.7985,      0.00
  1274.90,      0.00,  130.0821,      0.00
  1278.10,      0.00,  131.0184,      0.00
  1280.20,      0.00,  130.0301,      0.00
  1282.20,      0.00,  128.9899,      0.00
  1283.40,      0.00,  126.7014,      0.00
  1286.00,      0.00,  128.9379,      0.00
  1287.80,      0.00,  130.9143,      0.00
  1290.40,      0.00,  128.2617,      0.00
  1292.50,      0.00,  126.5453,      0.00
  1294.60,      0.00,  127.8456,      0.00
  1296.60,      0.00,  128.5218,      0.00
  1298.70,      0.00,  126.8054,      0.00
  1300.70,      0.00,  127.4295,      0.00
  1302.50,      0.00,  124.4648,      0.00
  1305.40,      0.00,  126.7534,      0.00
  1306.30,      0.00,  122.7484,      0.00
  1308.10,      0.00,  123.7367,      0.00
  1310.70,      0.00,   125.349,      0.00
  1312.80,      0.00,  123.6847,      0.00
  1314.50,      0.00,  126.2853,      0.00
  1316.80,      0.00,  120.6159,      0.00
  1318.30,      0.00,  122.2803,      0.00
  1320.70,      0.00,  120.5639,      0.00
  1322.70,      0.00,  121.2401,      0.00
  1325.10,      0.00,  118.8996,      0.00
  1326.60,      0.00,  120.5119,      0.00
  1328.30,      0.00,  123.1125,      0.00
  1331.00,      0.00,  120.1478,      0.00
  1332.70,      0.00,  121.4481,      0.00
  1334.80,      0.00,  119.4197,      0.00
  1336.50,      0.00,  120.0438,      0.00
  1339.80,      0.00,  118.3794,      0.00
  1342.70,      0.00,  117.3392,      0.00
  1346.50,      0.00,  113.9584,      0.00
  1348.90,      0.00,  119.5757,      0.00
  1352.10,      0.00,  116.8711,      0.00
  1354.20,      0.00,  117.1832,      0.00
  1356.20,      0.00,  119.1596,    2.6526
  1357.90,      0.00,  110.8377,      0.00
  1360.00,      0.00,  115.1547,      0.00
  1362.70,      0.00,  117.0791,      0.00
  1364.40,      0.00,  113.0742,      0.00
  1365.90,      0.00,   116.715,      0.00
  1368.00,      0.00,  114.6866,      0.00
  1370.30,      0.00,  113.3343,      0.00
  1372.70,      0.00,  114.9466,      0.00
  1374.70,      0.00,  113.9584,      0.00
  1376.50,      0.00,  111.6179,      0.00
  1378.60,      0.00,  115.8829,      0.00
  1380.30,      0.00,  109.9015,      0.00
  1382.60,      0.00,  108.2371,      0.00
  1384.70,      0.00,  109.5374,      0.00
  1386.50,      0.00,  111.5138,      0.00
  1390.90,      0.00,  112.7621,      0.00
  1391.50,      0.00,  110.1095,      0.00
  1394.10,      0.00,  111.0457,      0.00
  1395.90,      0.00,  109.6934,      0.00
  1398.20,      0.00,  110.6816,      0.00
  1400.00,      0.00,  106.6767,      0.00
  1400.40,      0.00,  108.9132,      0.00
  1401.40,      0.00,   107.977,      0.00
  1402.40,      0.00,  108.4971,      0.00
  1403.90,      0.00,  110.6816,      0.00
  1404.10,      0.00,  109.5894,      0.00
  1406.00,      0.00,   108.081,      0.00
  1406.50,      0.00,  111.5659,      0.00
  1408.20,      0.00,  108.2371,      0.00
  1408.50,      0.00,  104.9083,      0.00
  1409.60,      0.00,  105.2204,      0.00
  1410.30,      0.00,  106.2606,      0.00
  1412.00,      0.00,  106.2086,      0.00
  1412.70,      0.00,  106.8328,      0.00
  1414.10,      0.00,  106.8328,      0.00
  1414.20,      0.00,  106.6247,      0.00
  1415.90,      0.00,   107.821,      0.00
  1416.10,      0.00,  106.4687,      0.00
  1417.90,      0.00,  108.7572,      0.00
  1418.00,      0.00,  107.1968,      0.00
  1419.70,      0.00,  107.4569,      0.00
  1420.00,      0.00,  105.3764,      0.00
  1421.80,      0.00,  107.3529,      0.00
  1422.00,      0.00,  105.7405,      0.00
  1423.80,      0.00,  103.9721,      0.00
  1424.10,      0.00,   107.717,      0.00
  1425.80,      0.00,  104.3882,      0.00
  1426.40,      0.00,   103.556,      0.00
  1428.80,      0.00,  104.5442,      0.00
  1431.70,      0.00,  103.1399,      0.00
  1434.10,      0.00,  104.7003,      0.00
  1435.80,      0.00,  101.3195,      0.00
  1437.90,      0.00,  101.8916,      0.00
  1439.90,      0.00,  102.4637,      0.00
  1442.00,      0.00,   103.452,      0.00
  1444.10,      0.00,  103.1919,      0.00
  1445.90,      0.00,  105.1684,      0.00
  1449.00,      0.00,  101.3715,      0.00
  1450.80,      0.00,  100.1752,      0.00
  1453.20,      0.00,  101.5795,      0.00
  1455.00,      0.00,  104.1281,      0.00
  1457.30,      0.00,  102.3077,      0.00
  1459.30,      0.00,  100.3312,      0.00
  1461.30,      0.00,   99.9152,      0.00
  1463.00,      0.00,   95.9102,      0.00
  1465.10,      0.00,   98.3028,      0.00
  1467.50,      0.00,   98.6669,      0.00
  1469.90,      0.00,    99.447,      0.00
  1471.30,      0.00,   96.0663,      0.00
  1473.30,      0.00,   96.2223,      0.00
  1475.30,      0.00,   93.4136,      0.00
  1477.50,      0.00,   97.7827,      0.00
  1480.10,      0.00,   97.5746,      0.00
  1481.30,      0.00,   95.3901,      0.00
  1482.70,      0.00,   96.5344,      0.00
  1485.40,      0.00,   97.3146,      0.00
  1487.40,      0.00,   94.1418,      0.00
  1489.20,      0.00,   95.4941,      0.00
  1491.30,      0.00,    99.291,    2.3926
  1493.60,      0.00,   93.3096,      0.00
  1495.40,      0.00,   97.0545,      0.00
  1497.10,      0.00,   93.4657,      0.00
  1498.90,      0.00,   96.0142,      0.00
  1500.90,      0.00,    94.818,      0.00
  1502.70,      0.00,   97.2105,      0.00
  1505.00,      0.00,   94.4019,      0.00
  1507.10,      0.00,   92.7895,      0.00
  1508.90,      0.00,    94.974,      0.00
  1510.90,      0.00,   93.7777,      0.00
  1511.70,      0.00,   89.5648,      0.00
  1515.00,      0.00,   91.3332,      0.00
  1517.60,      0.00,   92.3214,      0.00
  1521.20,      0.00,   91.6972,      0.00
  1523.50,      0.00,   92.4774,      0.00
  1524.90,      0.00,   89.8768,      0.00
  1527.30,      0.00,   90.0329,      0.00
  1529.00,      0.00,   88.0564,      0.00
  1531.40,      0.00,   89.2007,      0.00
  1532.00,      0.00,    90.813,      0.00
  1534.70,      0.00,   92.3734,      0.00
  1536.40,      0.00,   89.3567,      0.00
  1539.30,      0.00,    90.553,      0.00
  1540.80,      0.00,   88.3685,      0.00
  1543.20,      0.00,    90.501,      0.00
  1544.60,      0.00,   88.5245,      0.00
  1546.90,      0.00,   88.1084,      0.00
  1548.40,      0.00,   85.9239,      0.00
  1550.80,      0.00,   87.4843,      0.00
  1552.80,      0.00,   85.8719,      0.00
  1554.90,      0.00,    86.444,      0.00
  1556.90,      0.00,    86.236,      0.00
  1559.30,      0.00,   87.0162,      0.00
  1560.70,      0.00,   85.4038,      0.00
  1563.10,      0.00,   85.9759,      0.00
  1564.80,      0.00,   84.7796,      0.00
  1566.60,      0.00,   86.5481,      0.00
  1568.90,      0.00,   85.3518,      0.00
  1571.30,      0.00,   85.1437,      0.00
  1573.00,      0.00,   82.9072,      0.00
  1574.80,      0.00,   84.8837,      0.00
  1576.90,      0.00,   85.6639,      0.00
  1579.20,      0.00,   84.6756,      0.00
  1580.70,      0.00,   85.8719,      0.00
  1583.30,      0.00,   83.0632,      0.00
  1585.00,      0.00,   81.6589,      0.00
  1586.90,      0.00,   85.9759,      0.00
  1588.60,      0.00,   83.9995,      0.00
  1591.00,      0.00,   83.9995,      0.00
  1593.00,      0.00,   82.7512,      0.00
  1594.70,      0.00,   81.7629,      0.00
  1597.10,      0.00,   84.5196,      0.00
  1598.60,      0.00,    81.919,      0.00
  1601.80,      0.00,   82.6992,      0.00
  1605.00,      0.00,   83.0632,      0.00
  1607.10,      0.00,   80.8787,      0.00
  1608.80,      0.00,   79.0583,      0.00
  1610.60,      0.00,   80.8267,      0.00
  1613.50,      0.00,   80.4106,      0.00
  1615.30,      0.00,   79.6305,      0.00
  1616.10,      0.00,   77.2379,      0.00
  1619.60,      0.00,   77.1859,      0.00
  1620.60,      0.00,   79.3704,      0.00
  1621.50,      0.00,   81.7629,      0.00
  1623.50,      0.00,   80.5667,      0.00
  1626.10,      0.00,   79.1103,      0.00
  1627.90,      0.00,   80.5147,      0.00
  1629.90,      0.00,   79.1103,      0.00
  1632.30,      0.00,   79.2664,      0.00
  1634.30,      0.00,   78.6942,      0.00
  1636.20,      0.00,   81.0348,      0.00
  1638.50,      0.00,   79.8385,      0.00
  1640.30,      0.00,   80.8267,      0.00
  1642.90,      0.00,   79.7865,      0.00
  1644.90,      0.00,   79.3704,      0.00
  1647.00,      0.00,   78.1741,      0.00
  1649.00,      0.00,   78.7462,      0.00
  1651.10,      0.00,   79.1103,      0.00
  1652.80,      0.00,   77.9141,      0.00
  1654.60,      0.00,   76.3537,      0.00
  1656.10,      0.00,   78.1221,      0.00
  1658.40,      0.00,   77.0819,      0.00
  1660.70,      0.00,   75.3135,      0.00
  1662.50,      0.00,   77.4459,      0.00
  1665.20,      0.00,   76.8218,      0.00
  1666.60,      0.00,   75.6255,      0.00
  1669.00,      0.00,   75.2094,      0.00
  1670.50,      0.00,   76.7698,      0.00
  1673.10,      0.00,   77.1859,      0.00
  1674.20,      0.00,   74.5853,      0.00
  1676.90,      0.00,   74.7413,      0.00
  1679.00,      0.00,   76.7178,      0.00
  1681.30,      0.00,   74.9494,      0.00
  1683.70,      0.00,   75.1054,      0.00
  1684.80,      0.00,    73.493,      0.00
  1687.20,      0.00,   75.8856,      0.00
  1688.60,      0.00,    73.493,      0.00
  1691.00,      0.00,   75.4175,      0.00
  1693.10,      0.00,   75.8336,      0.00
  1695.40,      0.00,   74.2212,      0.00
  1697.10,      0.00,   72.8169,      0.00
  1698.90,      0.00,   75.1574,      0.00
  1701.20,      0.00,   72.9729,      0.00
  1703.90,      0.00,   73.7531,      0.00
  1705.00,      0.00,   71.3605,      0.00
  1707.10,      0.00,   71.5686,      0.00
  1709.50,      0.00,   72.9209,      0.00
  1711.60,      0.00,   74.4813,      0.00
  1713.60,      0.00,   72.6608,      0.00
  1715.00,      0.00,   71.1005,      0.00
  1717.70,      0.00,   70.8404,      0.00
  1720.00,      0.00,   70.6324,      0.00
  1721.80,      0.00,   71.2045,      0.00
  1723.30,      0.00,   72.4008,      0.00
  1725.60,      0.00,   72.4008,      0.00
  1726.70,      0.00,    69.228,      0.00
  1729.10,      0.00,   71.3605,      0.00
  1730.90,      0.00,   69.3841,      0.00
  1732.90,      0.00,   68.7599,      0.00
  1735.00,      0.00,   69.9042,      0.00
  1736.80,      0.00,   70.3203,      0.00
  1739.10,      0.00,   70.4763,      0.00
  1741.10,      0.00,   69.4881,      0.00
  1742.90,      0.00,   69.8522,      0.00
  1745.20,      0.00,   68.2398,      0.00
  1747.30,      0.00,    68.864,      0.00
  1749.70,      0.00,   70.0082,      0.00
  1751.70,      0.00,    69.228,      0.00
  1753.50,      0.00,   68.3958,      0.00
  1755.80,      0.00,   69.3841,      0.00
  1757.60,      0.00,   67.5637,      0.00
  1759.60,      0.00,   65.5872,      0.00
  1761.40,      0.00,    68.916,      0.00
  1763.80,      0.00,   68.2918,      0.00
  1765.20,      0.00,    69.072,      0.00
  1767.60,      0.00,   67.6677,      0.00
  1769.60,      0.00,   66.6795,      0.00
  1771.70,      0.00,   67.4596,      0.00
  1774.30,      0.00,   67.6157,      0.00
  1775.80,      0.00,   66.6274,      0.00
  1777.80,      0.00,   66.4194,      0.00
  1780.20,      0.00,   67.7717,    1.6124
  1783.70,      0.00,   65.5872,      0.00
  1786.00,      0.00,   65.7432,      0.00
  1788.10,      0.00,   65.9513,      0.00
  1790.40,      0.00,   65.3271,      0.00
  1791.70,      0.00,   68.0838,      0.00
  1794.90,      0.00,   65.8993,      0.00
  1796.90,      0.00,   65.0671,      0.00
  1799.00,      0.00,   66.0553,      0.00
  1801.30,      0.00,   65.2231,      0.00
  1803.40,      0.00,    64.599,      0.00
  1804.00,      0.00,   66.2113,      0.00
  1807.10,      0.00,   62.4145,      0.00
  1809.20,      0.00,   63.7668,      0.00
  1810.70,      0.00,   66.3674,      0.00
  1812.20,      0.00,    64.547,      0.00
  1814.50,      0.00,   64.3389,      0.00
  1816.60,      0.00,   65.8993,    1.4043
  1818.30,      0.00,   62.7265,      0.00
  1820.70,      0.00,   65.4832,      0.00
  1822.20,      0.00,   64.0788,      0.00
  1824.20,      0.00,    64.651,      0.00
  1826.60,      0.00,   64.0268,      0.00
  1828.60,      0.00,   63.6107,      0.00
  1830.40,      0.00,   64.0268,      0.00
  1832.40,      0.00,   63.1946,      0.00
  1833.60,      0.00,   63.9748,      0.00
  1836.50,      0.00,   63.7668,      0.00
  1838.90,      0.00,   62.1544,      0.00
  1840.40,      0.00,   64.3389,      0.00
  1842.40,      0.00,   62.3104,      0.00
  1844.20,      0.00,   64.4949,      0.00
  1845.60,      0.00,   62.6745,      0.00
  1847.70,      0.00,    64.859,      0.00
  1850.30,      0.00,   62.2584,      0.00
  1852.40,      0.00,   63.2467,      0.00
  1854.50,      0.00,   63.4027,      0.00
  1856.20,      0.00,   60.0219,      0.00
  1857.40,      0.00,   61.7903,      0.00
  1860.30,      0.00,   63.3507,      0.00
  1861.80,      0.00,    60.594,      0.00
  1863.80,      0.00,   62.1544,      0.00
  1865.60,      0.00,   60.1779,      0.00
  1868.00,      0.00,   62.3104,      0.00
  1870.00,      0.00,   59.7098,      0.00
  1872.00,      0.00,   59.9179,      0.00
  1874.10,      0.00,   60.9061,      0.00
  1876.10,      0.00,   58.6696,      0.00
  1877.90,      0.00,     60.23,      0.00
  1880.60,      0.00,     60.23,      0.00
  1882.00,      0.00,   60.8021,      0.00
  1883.70,      0.00,   57.4213,      0.00
  1885.80,      0.00,   59.8139,      0.00
  1888.80,      0.00,   62.9346,      0.00
  1890.80,      0.00,   59.7618,      0.00
  1893.20,      0.00,   58.1495,      0.00
  1894.70,      0.00,   59.9179,      0.00
  1897.30,      0.00,   58.3055,      0.00
  1899.30,      0.00,   57.3173,      0.00
  1901.10,      0.00,   58.3055,      0.00
  1901.30,      0.00,   58.9297,      0.00
  1902.90,      0.00,    60.542,      0.00
  1903.20,      0.00,   59.8659,      0.00
  1904.90,      0.00,   60.6981,      0.00
  1905.20,      0.00,   59.6578,      0.00
  1907.10,      0.00,   57.9934,      0.00
  1907.30,      0.00,   57.8374,      0.00
  1909.20,      0.00,   59.1897,      0.00
  1909.60,      0.00,   58.8256,      0.00
  1911.00,      0.00,   58.1495,      0.00
  1911.10,      0.00,   57.6294,      0.00
  1913.30,      0.00,   58.0975,      0.00
  1913.40,      0.00,   57.3693,      0.00
  1914.50,      0.00,   59.0337,      0.00
  1914.60,      0.00,   58.7736,      0.00
  1916.30,      0.00,   59.6578,      0.00
  1917.00,      0.00,   59.3458,      0.00
  1918.60,      0.00,   57.9414,      0.00
  1919.00,      0.00,   57.5253,      0.00
  1920.90,      0.00,   57.5773,      0.00
  1921.10,      0.00,   56.9532,      0.00
  1922.80,      0.00,   59.4498,      0.00
  1922.90,      0.00,   58.7216,      0.00
  1924.80,      0.00,   59.0337,      0.00
  1924.90,      0.00,   58.6696,      0.00
  1926.30,      0.00,    55.913,      0.00
  1928.90,      0.00,   58.8256,      0.00
  1930.80,      0.00,   56.3811,      0.00
  1932.60,      0.00,   57.0052,      0.00
  1934.80,      0.00,   59.6578,      0.00
  1937.10,      0.00,   58.0455,      0.00
  1938.60,      0.00,   57.7854,      0.00
  1940.60,      0.00,   58.2535,      0.00
  1942.60,      0.00,   56.9532,      0.00
  1945.60,      0.00,   57.1612,      0.00
  1947.00,      0.00,    56.225,      0.00
  1949.40,      0.00,   57.2133,      0.00
  1950.80,      0.00,   56.7451,      0.00
  1952.80,      0.00,   55.0808,      0.00
  1954.70,      0.00,   56.9532,      0.00
  1956.70,      0.00,   55.6009,      0.00
  1959.30,      0.00,   55.6009,      0.00
  1961.00,      0.00,   55.1328,      0.00
  1963.10,      0.00,   55.2368,      0.00
  1965.80,      0.00,   55.2888,      0.00
  1967.90,      0.00,   56.3811,    0.8842
  1970.40,      0.00,   54.3526,      0.00
  1971.80,      0.00,   57.8374,      0.00
  1974.30,      0.00,   55.0288,      0.00
  1976.30,      0.00,   55.0288,      0.00
  1978.00,      0.00,   54.2486,      0.00
  1980.50,      0.00,   55.8089,      0.00
  1981.90,      0.00,   55.0808,      0.00
  1983.70,      0.00,   54.7167,      0.00
  1986.40,      0.00,   56.5891,      0.00
  1987.50,      0.00,   55.2368,      0.00
  1990.30,      0.00,   52.9483,      0.00
  1992.10,      0.00,   53.3124,      0.00
  1994.20,      0.00,   53.8325,      0.00
  1995.70,      0.00,   54.7167,      0.00
  1998.30,      0.00,   54.0925,      0.00
  2000.00,      0.00,   52.9483,      0.00
  2001.90,      0.00,   54.4046,      0.00
  2003.70,      0.00,   55.4969,      0.00
  2005.60,      0.00,   53.2083,      0.00
  2007.80,      0.00,   54.9247,      0.00
  2009.70,      0.00,   52.4281,      0.00
  2011.50,      0.00,   53.4684,      0.00
  2014.10,      0.00,   53.3124,      0.00
  2015.70,      0.00,   54.3526,      0.00
  2018.30,      0.00,   54.4566,      0.00
  2020.30,      0.00,   53.4164,      0.00
  2022.10,      0.00,   52.8963,      0.00
  2023.80,      0.00,   52.2201,      0.00
  2026.10,      0.00,   52.4281,      0.00
  2027.70,      0.00,   53.7805,    1.1443
  2029.90,      0.00,   52.1161,      0.00
  2032.60,      0.00,   52.2721,      0.00
  2034.30,      0.00,    51.648,      0.00
  2036.20,      0.00,   53.6764,      0.00
  2037.90,      0.00,   53.2083,      0.00
  2039.70,      0.00,   53.7805,      0.00
  2041.90,      0.00,   50.8158,      0.00
  2044.10,      0.00,   52.2201,      0.00
  2045.80,      0.00,   51.3359,      0.00
  2047.60,      0.00,   52.5322,      0.00
  2050.00,      0.00,   53.1563,      0.00
  2052.00,      0.00,   52.7402,      0.00
  2054.00,      0.00,   51.3879,      0.00
  2055.20,      0.00,   52.3241,      0.00
  2057.80,      0.00,   51.5439,      0.00
  2059.60,      0.00,   52.0641,      0.00
  2062.20,      0.00,   51.0238,      0.00
  2064.30,      0.00,   50.7118,      0.00
  2066.10,      0.00,   51.3879,      0.00
  2068.20,      0.00,   52.3761,      0.00
  2070.20,      0.00,    51.908,      0.00
  2071.60,      0.00,   51.2839,      0.00
  2073.90,      0.00,   50.0876,      0.00
  2076.30,      0.00,   50.2957,      0.00
  2078.00,      0.00,   49.5155,      0.00
  2081.00,      0.00,   49.9316,      0.00
  2082.70,      0.00,   50.0356,      0.00
  2084.50,      0.00,   50.6077,      0.00
  2086.70,      0.00,   52.1681,      0.00
  2088.30,      0.00,   49.0474,      0.00
  2090.40,      0.00,   49.8275,      0.00
  2092.80,      0.00,   52.1161,      0.00
  2095.10,      0.00,   49.8275,      0.00
  2096.50,      0.00,   48.6833,      0.00
  2098.50,      0.00,    47.591,      0.00
  2100.60,      0.00,   48.7873,      0.00
  2102.70,      0.00,   50.3997,      0.00
  2104.50,      0.00,   49.7755,      0.00
  2106.20,      0.00,   48.5273,      0.00
  2108.50,      0.00,    47.591,      0.00
  2110.40,      0.00,   50.0356,      0.00
  2111.70,      0.00,    47.539,      0.00
  2114.40,      0.00,   48.2152,      0.00
  2115.80,      0.00,   47.9031,      0.00
  2118.30,      0.00,   49.8796,      0.00
  2119.90,      0.00,   47.9551,      0.00
  2122.90,      0.00,   48.2672,      0.00
  2124.30,      0.00,   47.1229,      0.00
  2126.30,      0.00,   46.1347,      0.00
  2128.20,      0.00,   47.7471,      0.00
  2130.10,      0.00,   46.3948,      0.00
  2132.20,      0.00,   46.9149,      0.00
  2134.00,      0.00,    47.643,      0.00
  2136.10,      0.00,   47.1749,      0.00
  2138.70,      0.00,   46.4468,      0.00
  2140.80,      0.00,    47.279,      0.00
  2143.10,      0.00,   46.5508,      0.00
  2145.70,      0.00,   46.2907,      0.00
  2147.50,      0.00,   46.5508,      0.00
  2147.80,      0.00,    47.331,      0.00
  2149.70,      0.00,   48.9433,      0.00
  2150.80,      0.00,   48.0591,      0.00
  2152.80,      0.00,    47.487,      0.00
  2155.50,      0.00,   47.1229,      0.00
  2157.60,      0.00,   47.7991,      0.00
  2159.30,      0.00,   46.6028,      0.00
  2161.70,      0.00,   48.5273,      0.00
  2163.40,      0.00,   46.2907,      0.00
  2164.10,      0.00,   50.2957,      0.00
  2165.90,      0.00,   50.0876,      0.00
  2166.50,      0.00,   51.2319,      0.00
  2168.30,      0.00,    51.908,      0.00
  2169.00,      0.00,    47.383,      0.00
  2169.10,      0.00,   49.8796,      0.00
  2171.90,      0.00,   45.9266,      0.00
  2173.20,      0.00,   43.9502,      0.00
  2175.00,      0.00,   44.7304,      0.00
  2177.40,      0.00,   45.1985,      0.00
  2179.80,      0.00,   45.6146,      0.00
  2181.80,      0.00,   45.8746,      0.00
  2183.50,      0.00,   44.4703,      0.00
  2186.20,      0.00,   44.5223,      0.00
  2187.90,      0.00,   43.7941,      0.00
  2189.70,      0.00,   45.3545,      0.00
  2192.60,      0.00,   43.6381,      0.00
  2195.30,      0.00,   45.1985,      0.00
  2196.80,      0.00,   45.0424,      0.00
  2198.00,      0.00,   45.4585,      0.00
  2200.10,      0.00,   46.1347,    0.8842
  2202.70,      0.00,   45.5106,      0.00
  2205.20,      0.00,   43.9502,      0.00
  2207.10,      0.00,   44.9904,      0.00
  2209.60,      0.00,    43.118,      0.00
  2210.90,      0.00,   44.5223,      0.00
  2213.50,      0.00,   44.5223,      0.00
  2214.60,      0.00,   43.8982,      0.00
  2217.30,      0.00,   44.5743,      0.00
  2220.00,      0.00,   44.1582,      0.00
  2222.60,      0.00,   43.6901,      0.00
  2223.40,      0.00,    42.962,      0.00
  2225.00,      0.00,   44.4183,      0.00
  2226.90,      0.00,   42.8579,      0.00
  2228.70,      0.00,   42.5459,      0.00
  2230.90,      0.00,   44.9384,      0.00
  2232.80,      0.00,    43.274,      0.00
  2235.20,      0.00,    43.066,      0.00
  2236.90,      0.00,     43.17,      0.00
  2238.70,      0.00,   43.7941,      0.00
  2241.50,      0.00,   45.0944,      0.00
  2243.20,      0.00,   44.4703,      0.00
EndData:
