Comment:    Automatically converted from EXFOR at 2020-10-01,07:34:35
            by the IAEA-NDS EXFOR Web-Retrieval System,
            program X4toR33 ver-2020-05-11 (V.Zerkin).
            X4Title: "Resonance spectroscopy of 30Si nucleus in the
                      excitation energy range 14.27 to 15.02 MeV"
            X4Author: L.V.Namjoshi,  S.K.Gupta,  M.K.Mehta, S.S.Kerekatte
            EXFOR: D6019002    Created: 2009-11-05  Updated: 2018-06-29
            X4Reaction:12-MG-26(A,EL)12-MG-26,,DA; X4Points:772
            Converted from C.M. to Lab.: Sigma, Theta
            SigmaLab=SigmaCM/0.9655192
            ThetaLab=81.3 ThetaCM:90.0
            ENSDF:LevelEnergy=0.00
            Systematic uncertainty: ErrSys=5.0%
            AME2016: M1=4.002603254 M2=25.982592971 M3=4.002603254 M4=25.982592971

Version:      R33
X4Number:     D6019002 20180629
Source:       L.V.Namjoshi+(1976), Physical Review, Part C, Nuclear Physics, Vol.13, p.915
Reaction:     26Mg(a,a0)26Mg
Distribution: Energy
Sigfactors:   1.00, 0.05
Enfactors:    1.00, 0.00, 0.00, 0.00
Units:        mb
Composition:
Masses:       4.0, 26.0, 4.0, 26.0
Zeds:         2, 12, 2, 12
Qvalue:       0.0, 0.00, 0.00, 0.00, 0.00
Theta:        81.3
Data:
  4183.00,      0.00,  221.7356,      0.00
  4187.00,      0.00,  224.5113,      0.00
  4194.00,      0.00,  227.5978,      0.00
  4198.00,      0.00,  225.7438,      0.00
  4204.00,      0.00,  235.3035,      0.00
  4210.00,      0.00,  225.7542,      0.00
  4213.00,      0.00,  218.6699,      0.00
  4219.00,      0.00,  232.2274,      0.00
  4225.00,      0.00,  226.6863,      0.00
  4228.00,      0.00,   218.991,      0.00
  4235.00,      0.00,  229.1617,      0.00
  4241.00,      0.00,  220.2338,      0.00
  4246.00,      0.00,  208.5303,      0.00
  4250.00,      0.00,  212.2278,      0.00
  4254.00,      0.00,  210.3842,      0.00
  4260.00,      0.00,  206.6867,      0.00
  4264.00,      0.00,   211.306,      0.00
  4268.00,      0.00,  208.8514,      0.00
  4274.00,      0.00,  208.2403,      0.00
  4278.00,      0.00,   206.086,      0.00
  4284.00,      0.00,   213.481,      0.00
  4287.00,      0.00,  208.8617,      0.00
  4292.00,      0.00,  212.5592,      0.00
  4299.00,      0.00,  195.6253,      0.00
  4305.00,      0.00,   165.134,      0.00
  4310.00,      0.00,  154.0518,      0.00
  4317.00,      0.00,   160.525,      0.00
  4319.00,      0.00,  166.3768,      0.00
  4328.00,      0.00,  166.9982,      0.00
  4330.00,      0.00,  172.5393,      0.00
  4336.00,      0.00,  170.6957,      0.00
  4342.00,      0.00,  173.7822,      0.00
  4347.00,      0.00,  170.7061,      0.00
  4353.00,      0.00,  173.7873,    2.4598
  4363.00,      0.00,  174.7143,      0.00
  4364.00,      0.00,  178.4118,      0.00
  4372.00,      0.00,    187.35,      0.00
  4375.00,      0.00,   194.745,      0.00
  4383.00,      0.00,  191.0578,      0.00
  4384.00,      0.00,  183.9736,      0.00
  4388.00,      0.00,  178.7329,      0.00
  4396.00,      0.00,  176.2782,      0.00
  4401.00,      0.00,  179.0539,      0.00
  4406.00,      0.00,  186.1382,      0.00
  4413.00,      0.00,  183.6836,      0.00
  4414.00,      0.00,  176.8996,      0.00
  4422.00,      0.00,  178.4429,      0.00
  4425.00,      0.00,  188.0025,      0.00
  4430.00,      0.00,  190.7678,      0.00
  4435.00,      0.00,  188.0025,      0.00
  4441.00,      0.00,  178.4636,      0.00
  4444.00,      0.00,  169.8361,      0.00
  4452.00,      0.00,  171.0789,      0.00
  4454.00,      0.00,  168.3032,      0.00
  4458.00,      0.00,  165.5379,      0.00
  4466.00,      0.00,  168.0029,      0.00
  4470.00,      0.00,  171.0893,      0.00
  4474.00,      0.00,  177.5521,      0.00
  4478.00,      0.00,  181.2496,      0.00
  4485.00,      0.00,  183.4143,      0.00
  4488.00,      0.00,  186.8011,      0.00
  4494.00,      0.00,  184.9575,      0.00
  4500.00,      0.00,  182.5028,      0.00
  4505.00,      0.00,  184.9678,      0.00
  4508.00,      0.00,  183.1243,      0.00
  4513.00,      0.00,  188.6653,      0.00
  4519.00,      0.00,  181.5811,      0.00
  4523.00,      0.00,  184.9782,      0.00
  4527.00,      0.00,  175.1182,      0.00
  4535.00,      0.00,  177.9043,      0.00
  4538.00,      0.00,  158.8058,      0.00
  4541.00,      0.00,  165.5793,      0.00
  4549.00,      0.00,  168.6657,      0.00
  4553.00,      0.00,  157.5836,      0.00
  4561.00,      0.00,  153.5858,      0.00
  4569.00,      0.00,  147.4233,      0.00
  4574.00,      0.00,  157.2833,      0.00
  4579.00,      0.00,  152.3636,      0.00
  4583.00,      0.00,  140.0386,      0.00
  4590.00,      0.00,  142.8144,      0.00
  4595.00,      0.00,  161.6125,      0.00
  4599.00,      0.00,  170.5404,      0.00
  4603.00,      0.00,  176.0918,      0.00
  4609.00,      0.00,  182.8757,      0.00
  4616.00,      0.00,  176.1021,      0.00
  4618.00,      0.00,  178.5671,      0.00
  4625.00,      0.00,  172.1043,      0.00
  4629.00,      0.00,  181.6536,      0.00
  4634.00,      0.00,  168.7175,      0.00
  4638.00,      0.00,  173.9582,      0.00
  4644.00,      0.00,  171.8039,      0.00
  4650.00,      0.00,  169.0386,      0.00
  4654.00,      0.00,  174.5797,      0.00
  4660.00,      0.00,  169.0386,      0.00
  4664.00,      0.00,  176.4336,      0.00
  4668.00,      0.00,  182.2853,      0.00
  4675.00,      0.00,  177.3657,      0.00
  4682.00,      0.00,  175.5221,      0.00
  4684.00,      0.00,  169.6704,      0.00
  4689.00,      0.00,  165.6725,      0.00
  4695.00,      0.00,   157.045,      0.00
  4698.00,      0.00,   161.364,      0.00
  4704.00,      0.00,  169.6807,      0.00
  4713.00,      0.00,  162.6068,      0.00
  4716.00,      0.00,  157.3661,      0.00
  4719.00,      0.00,  152.7572,      0.00
  4725.00,      0.00,  156.4547,      0.00
  4730.00,      0.00,    164.15,      0.00
  4733.00,      0.00,  167.5472,      0.00
  4739.00,      0.00,  155.5329,      0.00
  4743.00,      0.00,  163.5493,      0.00
  4751.00,      0.00,   166.325,      0.00
  4754.00,      0.00,  162.9382,      0.00
  4758.00,      0.00,  168.1789,      0.00
  4763.00,      0.00,  162.6379,      0.00
  4772.00,      0.00,  151.2451,      0.00
  4776.00,      0.00,  159.2511,      0.00
  4777.00,      0.00,  163.8704,      0.00
  4787.00,      0.00,  159.8725,      0.00
  4788.00,      0.00,  163.8807,      0.00
  4798.00,      0.00,  164.5022,      0.00
  4799.00,      0.00,  166.3561,      0.00
  4805.00,      0.00,  170.6647,      0.00
  4812.00,      0.00,  164.2018,      0.00
  4815.00,      0.00,  157.1175,      0.00
  4820.00,      0.00,  159.2822,      0.00
  4825.00,      0.00,  154.6629,      0.00
  4831.00,      0.00,  160.2143,      0.00
  4836.00,      0.00,    158.06,      0.00
  4840.00,      0.00,  153.1301,      0.00
  4847.00,      0.00,  150.9758,      0.00
  4853.00,      0.00,  154.0622,      0.00
  4856.00,      0.00,  144.8236,      0.00
  4860.00,      0.00,  135.2744,      0.00
  4866.00,      0.00,   125.114,      0.00
  4871.00,      0.00,  127.2787,      0.00
  4876.00,      0.00,  131.2869,      0.00
  4883.00,      0.00,  134.3733,      0.00
  4887.00,      0.00,   127.289,      0.00
  4890.00,      0.00,  120.8262,      0.00
  4894.00,      0.00,  112.1987,      0.00
  4901.00,      0.00,  111.5876,      0.00
  4905.00,      0.00,   104.203,      0.00
  4910.00,      0.00,  107.5898,      0.00
  4916.00,      0.00,  103.5919,      0.00
  4920.00,      0.00,  113.4416,      0.00
  4926.00,      0.00,  112.8305,      0.00
  4933.00,      0.00,  114.9951,      0.00
  4940.00,      0.00,  115.6166,      0.00
  4941.00,      0.00,  120.5465,      0.00
  4950.00,      0.00,  119.9355,      0.00
  4955.00,      0.00,  117.1598,      0.00
  4959.00,      0.00,  109.4644,      0.00
  4965.00,      0.00,  110.0859,      0.00
  4972.00,      0.00,  107.6209,      0.00
  4974.00,      0.00,   103.623,      0.00
  4979.00,      0.00,  100.2362,      0.00
  4985.00,      0.00,    86.078,      0.00
  4989.00,      0.00,   89.1541,      0.00
  4993.00,      0.00,   94.0841,      0.00
  4999.00,      0.00,  116.2691,      0.00
  5006.00,      0.00,  125.5076,      0.00
  5009.00,      0.00,  150.1472,      0.00
  5014.00,      0.00,   153.855,      0.00
  5020.00,      0.00,  148.6143,      0.00
  5025.00,      0.00,   153.244,      0.00
  5030.00,      0.00,  131.6805,      0.00
  5033.00,      0.00,  118.7548,      0.00
  5040.00,      0.00,  116.9112,      0.00
  5045.00,      0.00,  119.9873,      0.00
  5052.00,      0.00,  116.6005,      0.00
  5053.00,      0.00,  110.4484,      0.00
  5058.00,      0.00,  103.0534,      0.00
  5063.00,      0.00,   96.9012,      0.00
  5067.00,      0.00,   99.6769,      0.00
  5073.00,      0.00,  100.9095,      0.00
  5078.00,      0.00,   93.2141,      0.00
  5084.00,      0.00,  100.6091,      0.00
  5088.00,      0.00,  105.8498,      0.00
  5096.00,      0.00,  104.0062,      0.00
  5098.00,      0.00,  112.6337,      0.00
  5109.00,      0.00,  108.0144,      0.00
  5113.00,      0.00,  107.4034,      0.00
  5121.00,      0.00,  112.0226,      0.00
  5122.00,      0.00,  117.5741,      0.00
  5130.00,      0.00,  120.3498,      0.00
  5134.00,      0.00,  125.8908,      0.00
  5137.00,      0.00,  123.7365,      0.00
  5144.00,      0.00,  124.6687,      0.00
  5145.00,      0.00,  120.3601,      0.00
EndData:
