Comment:    Automatically converted from EXFOR at 2020-10-01,07:35:36
            by the IAEA-NDS EXFOR Web-Retrieval System,
            program X4toR33 ver-2020-05-11 (V.Zerkin).
            X4Title: "Resonance spectroscopy of 30Si nucleus in the
                      excitation energy range 14.27 to 15.02 MeV"
            X4Author: L.V.Namjoshi,  S.K.Gupta,  M.K.Mehta, S.S.Kerekatte
            EXFOR: D6019002    Created: 2009-11-05  Updated: 2018-06-29
            X4Reaction:12-MG-26(A,EL)12-MG-26,,DA; X4Points:772
            Converted from C.M. to Lab.: Sigma, Theta
            SigmaLab=SigmaCM/1.1692653
            ThetaLab=117.1 ThetaCM:125.0
            ENSDF:LevelEnergy=0.00
            Systematic uncertainty: ErrSys=5.0%
            AME2016: M1=4.002603254 M2=25.982592971 M3=4.002603254 M4=25.982592971

Version:      R33
X4Number:     D6019002 20180629
Source:       L.V.Namjoshi+(1976), Physical Review, Part C, Nuclear Physics, Vol.13, p.915
Reaction:     26Mg(a,a0)26Mg
Distribution: Energy
Sigfactors:   1.00, 0.05
Enfactors:    1.00, 0.00, 0.00, 0.00
Units:        mb
Composition:
Masses:       4.0, 26.0, 4.0, 26.0
Zeds:         2, 12, 2, 12
Qvalue:       0.0, 0.00, 0.00, 0.00, 0.00
Theta:        117.1
Data:
  4182.00,      0.00,   51.0492,      0.00
  4189.00,      0.00,   57.6259,      0.00
  4192.00,      0.00,   62.5521,      0.00
  4196.00,      0.00,   60.4055,      0.00
  4201.00,      0.00,   56.4885,      0.00
  4210.00,      0.00,   55.2313,      0.00
  4215.00,      0.00,   53.4609,      0.00
  4219.00,      0.00,   50.4248,      0.00
  4223.00,      0.00,   46.1315,      0.00
  4229.00,      0.00,   44.1132,      0.00
  4235.00,      0.00,   43.8566,      0.00
  4240.00,      0.00,   45.2506,      0.00
  4242.00,      0.00,   46.3881,      0.00
  4247.00,      0.00,   51.0663,      0.00
  4252.00,      0.00,   53.3412,      0.00
  4259.00,      0.00,   55.8727,      0.00
  4261.00,      0.00,   53.8458,      0.00
  4270.00,      0.00,   53.5978,      0.00
  4273.00,      0.00,   49.8091,      0.00
  4278.00,      0.00,   46.3967,      0.00
  4285.00,      0.00,   47.9104,      0.00
  4288.00,      0.00,   43.3606,      0.00
  4292.00,      0.00,   30.6004,      0.00
  4299.00,      0.00,   28.9584,      0.00
  4304.00,      0.00,   34.1411,      0.00
  4310.00,      0.00,   46.1486,      0.00
  4313.00,      0.00,   48.6801,      0.00
  4320.00,      0.00,   51.7077,      0.00
  4324.00,      0.00,   49.8176,      0.00
  4329.00,      0.00,    47.919,      0.00
  4334.00,      0.00,   51.7162,      0.00
  4337.00,      0.00,   45.7723,      0.00
  4345.00,      0.00,   46.2769,      0.00
  4349.00,      0.00,   41.9836,      0.00
  4354.00,      0.00,   48.1756,      0.00
  4359.00,      0.00,   51.9728,      0.00
  4364.00,      0.00,   49.8262,      0.00
  4368.00,      0.00,   52.4774,      0.00
  4374.00,      0.00,   51.0919,      0.00
  4379.00,      0.00,   46.4138,      0.00
  4387.00,      0.00,   46.2256,    1.0776
  4396.00,      0.00,    43.955,    1.2016
  4404.00,      0.00,   42.8816,      0.00
  4411.00,      0.00,   41.9922,      0.00
  4415.00,      0.00,    40.735,      0.00
  4419.00,      0.00,   38.8364,      0.00
  4423.00,      0.00,   40.9916,      0.00
  4427.00,      0.00,   38.0837,      0.00
  4437.00,      0.00,    34.295,      0.00
  4440.00,      0.00,   36.6897,      0.00
  4445.00,      0.00,   43.2665,      0.00
  4451.00,      0.00,   40.9916,      0.00
  4457.00,      0.00,   41.7527,      0.00
  4460.00,      0.00,   39.8541,      0.00
  4465.00,      0.00,   35.4325,      0.00
  4470.00,      0.00,    43.275,      0.00
  4474.00,      0.00,   40.8718,      0.00
  4483.00,      0.00,   41.3764,      0.00
  4484.00,      0.00,    43.275,      0.00
  4492.00,      0.00,    43.275,      0.00
  4495.00,      0.00,   44.6691,      0.00
  4501.00,      0.00,   41.7613,      0.00
  4506.00,      0.00,   41.0001,      0.00
  4509.00,      0.00,   38.3489,      0.00
  4515.00,      0.00,    33.551,      0.00
  4519.00,      0.00,   31.0195,      0.00
  4525.00,      0.00,   29.3774,      0.00
  4529.00,      0.00,   26.7262,      0.00
  4535.00,      0.00,   23.9467,      0.00
  4540.00,      0.00,   19.2685,      0.00
  4546.00,      0.00,    16.489,      0.00
  4553.00,      0.00,   15.9844,      0.00
  4557.00,      0.00,   19.0205,      0.00
  4560.00,      0.00,   24.4598,      0.00
  4564.00,      0.00,   28.1202,      0.00
  4569.00,      0.00,   29.6425,      0.00
  4572.00,      0.00,   36.7154,      0.00
  4578.00,      0.00,   38.7423,      0.00
  4584.00,      0.00,   40.7692,      0.00
  4588.00,      0.00,   41.6501,      0.00
  4595.00,      0.00,   42.0349,      0.00
  4599.00,      0.00,   41.1455,      0.00
  4606.00,      0.00,   41.6586,      0.00
  4610.00,      0.00,   37.8614,      0.00
  4612.00,      0.00,   40.7692,      0.00
  4619.00,      0.00,   37.8614,      0.00
  4624.00,      0.00,   41.6586,      0.00
  4628.00,      0.00,   37.4851,      0.00
  4634.00,      0.00,   35.7233,      0.00
  4639.00,      0.00,   37.8699,      0.00
  4645.00,      0.00,   34.3293,      0.00
  4651.00,      0.00,   34.5858,      0.00
  4657.00,      0.00,    35.595,      0.00
  4660.00,      0.00,   32.6872,      0.00
  4665.00,      0.00,   35.0904,      0.00
  4669.00,      0.00,     31.43,      0.00
  4673.00,      0.00,   28.8985,      0.00
  4681.00,      0.00,   29.6597,      0.00
  4685.00,      0.00,   33.9615,      0.00
  4689.00,      0.00,   37.5022,      0.00
  4695.00,      0.00,   38.3831,      0.00
  4699.00,      0.00,   43.5658,      0.00
  4706.00,      0.00,   44.7033,      0.00
  4709.00,      0.00,   43.5658,      0.00
  4716.00,      0.00,    44.079,      0.00
  4723.00,      0.00,   44.2072,      0.00
  4725.00,      0.00,   46.7302,      0.00
  4732.00,      0.00,   46.2256,      0.00
  4733.00,      0.00,   44.9684,      0.00
  4741.00,      0.00,    45.473,      0.00
  4745.00,      0.00,   42.5652,      0.00
  4750.00,      0.00,   43.9592,      0.00
  4758.00,      0.00,   42.9501,      0.00
  4761.00,      0.00,    45.473,      0.00
  4765.00,      0.00,   40.2988,      0.00
  4770.00,      0.00,   38.7765,      0.00
  4777.00,      0.00,   39.4094,      0.00
  4778.00,      0.00,   36.5016,      0.00
  4787.00,      0.00,   39.2896,      0.00
  4791.00,      0.00,    37.391,      0.00
  4794.00,      0.00,   36.3818,      0.00
  4800.00,      0.00,   38.9133,      0.00
  4805.00,      0.00,   35.3726,      0.00
  4812.00,      0.00,     34.62,      0.00
  4815.00,      0.00,   32.7214,      0.00
  4822.00,      0.00,   33.0977,      0.00
  4827.00,      0.00,   33.3543,      0.00
  4830.00,      0.00,   28.6761,      0.00
  4834.00,      0.00,   32.2168,      0.00
  4837.00,      0.00,   28.9327,      0.00
  4844.00,      0.00,   28.4281,      0.00
  4851.00,      0.00,   27.5472,      0.00
  4853.00,      0.00,   25.6486,      0.00
  4859.00,      0.00,   23.8782,      0.00
  4866.00,      0.00,   24.0065,      0.00
  4871.00,      0.00,   23.1256,      0.00
  4875.00,      0.00,   23.8868,      0.00
  4880.00,      0.00,   24.7677,      0.00
  4885.00,      0.00,   20.0981,      0.00
  4891.00,      0.00,   22.2447,      0.00
  4895.00,      0.00,    24.896,      0.00
  4899.00,      0.00,   28.4367,      0.00
  4905.00,      0.00,   29.3261,      0.00
  4909.00,      0.00,   28.3169,      0.00
  4916.00,      0.00,   28.1886,      0.00
  4920.00,      0.00,   29.0781,      0.00
  4925.00,      0.00,   38.6824,      0.00
  4929.00,      0.00,   43.3606,      0.00
  4935.00,      0.00,   46.2684,      0.00
  4943.00,      0.00,   46.0204,      0.00
  4946.00,      0.00,   44.7546,      0.00
  4952.00,      0.00,   43.1125,      0.00
  4956.00,      0.00,   36.9206,      0.00
  4962.00,      0.00,   39.0673,      0.00
  4964.00,      0.00,   36.0397,      0.00
  4971.00,      0.00,   38.5627,      0.00
  4976.00,      0.00,   36.7923,      0.00
  4980.00,      0.00,   35.6634,      0.00
  4984.00,      0.00,   31.8662,      0.00
  4991.00,      0.00,   30.9853,      0.00
  4994.00,      0.00,   27.9492,      0.00
  5002.00,      0.00,   24.5453,      0.00
  5007.00,      0.00,   23.6559,      0.00
  5009.00,      0.00,   20.8764,      0.00
  5015.00,      0.00,   22.6467,      0.00
  5019.00,      0.00,   21.2612,      0.00
  5027.00,      0.00,   23.2796,      0.00
  5031.00,      0.00,   21.6375,      0.00
  5035.00,      0.00,   25.9394,      0.00
  5040.00,      0.00,   26.8203,      0.00
  5045.00,      0.00,   25.3065,      0.00
  5049.00,      0.00,   24.2973,      0.00
  5055.00,      0.00,   26.5722,      0.00
  5060.00,      0.00,   29.9846,      0.00
  5063.00,      0.00,   33.9016,      0.00
  5070.00,      0.00,   34.1582,      0.00
  5075.00,      0.00,   32.7727,      0.00
  5083.00,      0.00,   32.2681,      0.00
  5086.00,      0.00,   33.2773,      0.00
  5090.00,      0.00,   33.6622,      0.00
  5092.00,      0.00,   35.6805,      0.00
  5100.00,      0.00,   35.3042,      0.00
  5104.00,      0.00,    40.735,      0.00
  5108.00,      0.00,   42.2573,      0.00
  5115.00,      0.00,   40.7435,      0.00
  5118.00,      0.00,   43.7711,      0.00
  5126.00,      0.00,   44.0276,      0.00
  5129.00,      0.00,   42.8902,      0.00
  5136.00,      0.00,   42.0093,      0.00
  5139.00,      0.00,   38.8535,      0.00
  5146.00,      0.00,   40.1107,      0.00
EndData:
