Comment:    Automatically converted from EXFOR at 2020-10-01,07:39:25
            by the IAEA-NDS EXFOR Web-Retrieval System,
            program X4toR33 ver-2020-05-11 (V.Zerkin).
            X4Title: "Resonance spectroscopy of 30Si nucleus in the
                      excitation energy range 14.27 to 15.02 MeV"
            X4Author: L.V.Namjoshi,  S.K.Gupta,  M.K.Mehta, S.S.Kerekatte
            EXFOR: D6019002    Created: 2009-11-05  Updated: 2018-06-29
            X4Reaction:12-MG-26(A,EL)12-MG-26,,DA; X4Points:772
            Converted from C.M. to Lab.: Sigma, Theta
            SigmaLab=SigmaCM/1.2669837
            ThetaLab=134.7 ThetaCM:141.0
            ENSDF:LevelEnergy=0.00
            Systematic uncertainty: ErrSys=5.0%
            AME2016: M1=4.002603254 M2=25.982592971 M3=4.002603254 M4=25.982592971

Version:      R33
X4Number:     D6019002 20180629
Source:       L.V.Namjoshi+(1976), Physical Review, Part C, Nuclear Physics, Vol.13, p.915
Reaction:     26Mg(a,a0)26Mg
Distribution: Energy
Sigfactors:   1.00, 0.05
Enfactors:    1.00, 0.00, 0.00, 0.00
Units:        mb
Composition:
Masses:       4.0, 26.0, 4.0, 26.0
Zeds:         2, 12, 2, 12
Qvalue:       0.0, 0.00, 0.00, 0.00, 0.00
Theta:        134.7
Data:
  4183.00,      0.00,   40.6477,      0.00
  4189.00,      0.00,   41.4686,      0.00
  4193.00,      0.00,   42.5341,      0.00
  4198.00,      0.00,   39.4717,      0.00
  4202.00,      0.00,   36.5198,      0.00
  4209.00,      0.00,   35.4622,      0.00
  4215.00,      0.00,   36.7566,      0.00
  4220.00,      0.00,   34.0415,      0.00
  4224.00,      0.00,   30.1503,      0.00
  4230.00,      0.00,   30.9791,      0.00
  4233.00,      0.00,   36.6382,      0.00
  4240.00,      0.00,   33.5758,      0.00
  4243.00,      0.00,   36.0541,      0.00
  4250.00,      0.00,   37.8221,      0.00
  4252.00,      0.00,   41.1213,      0.00
  4258.00,      0.00,   40.3004,      0.00
  4263.00,      0.00,   38.2957,      0.00
  4270.00,      0.00,   42.0684,      0.00
  4272.00,      0.00,   38.7692,      0.00
  4277.00,      0.00,   32.2814,      0.00
  4283.00,      0.00,   31.8078,      0.00
  4287.00,      0.00,    30.395,      0.00
  4291.00,      0.00,   23.4336,      0.00
  4301.00,      0.00,    23.552,      0.00
  4303.00,      0.00,   30.0398,      0.00
  4307.00,      0.00,   39.2428,      0.00
  4314.00,      0.00,   39.8269,      0.00
  4317.00,      0.00,   36.2909,      0.00
  4324.00,      0.00,   36.2909,      0.00
  4327.00,      0.00,   36.8829,      0.00
  4332.00,      0.00,   37.3564,      0.00
  4338.00,      0.00,    39.006,      0.00
  4344.00,      0.00,   36.7645,      0.00
  4348.00,      0.00,   33.5837,      0.00
  4352.00,      0.00,   29.5742,      0.00
  4360.00,      0.00,    29.219,      0.00
  4365.00,      0.00,   30.0477,      0.00
  4369.00,      0.00,   31.5789,      0.00
  4374.00,      0.00,   28.2719,      0.00
  4379.00,      0.00,   31.9341,      0.00
  4388.00,      0.00,   32.5261,      0.00
  4390.00,      0.00,   30.5213,      0.00
  4394.00,      0.00,   27.3326,      0.00
  4400.00,      0.00,    29.219,      0.00
  4405.00,      0.00,   28.5165,      0.00
  4411.00,      0.00,   29.3374,      0.00
  4416.00,      0.00,   31.1133,      0.00
  4420.00,      0.00,   30.1661,      0.00
  4427.00,      0.00,   30.6397,      0.00
  4429.00,      0.00,   28.8717,      0.00
  4431.00,      0.00,   26.1566,      0.00
  4440.00,      0.00,    26.275,      0.00
  4443.00,      0.00,   28.8717,      0.00
  4449.00,      0.00,   27.5773,      0.00
  4452.00,      0.00,   28.8717,      0.00
  4457.00,      0.00,   30.0477,      0.00
  4464.00,      0.00,   29.4637,      0.00
  4465.00,      0.00,   27.5773,      0.00
  4472.00,      0.00,   28.5165,      0.00
  4477.00,      0.00,   26.7486,      0.00
  4484.00,      0.00,   28.7533,      0.00
  4490.00,      0.00,   27.2221,      0.00
  4492.00,      0.00,   28.7533,      0.00
  4498.00,      0.00,   27.9325,      0.00
  4504.00,      0.00,   28.2877,      0.00
  4507.00,      0.00,    26.867,      0.00
  4515.00,      0.00,   25.2174,      0.00
  4518.00,      0.00,   22.6285,      0.00
  4526.00,      0.00,   18.7295,      0.00
  4532.00,      0.00,   18.0271,      0.00
  4535.00,      0.00,   13.1888,      0.00
  4539.00,      0.00,    9.8896,      0.00
  4545.00,      0.00,    9.1793,      0.00
  4548.00,      0.00,   11.0657,      0.00
  4556.00,      0.00,   14.7279,      0.00
  4557.00,      0.00,   20.8606,      0.00
  4565.00,      0.00,   22.7469,      0.00
  4570.00,      0.00,   24.9885,      0.00
  4575.00,      0.00,   26.2829,      0.00
  4579.00,      0.00,    28.406,      0.00
  4585.00,      0.00,   24.2781,      0.00
  4590.00,      0.00,   26.5197,      0.00
  4593.00,      0.00,   28.6428,      0.00
  4597.00,      0.00,   32.3051,      0.00
  4604.00,      0.00,   33.0075,      0.00
  4610.00,      0.00,   32.7786,      0.00
  4613.00,      0.00,   31.3579,      0.00
  4618.00,      0.00,     29.59,      0.00
  4623.00,      0.00,   30.0635,      0.00
  4629.00,      0.00,   28.8875,      0.00
  4635.00,      0.00,   26.4092,      0.00
  4641.00,      0.00,   25.2253,      0.00
  4643.00,      0.00,   28.7691,      0.00
  4649.00,      0.00,   29.0059,      0.00
  4657.00,      0.00,   29.7084,      0.00
  4659.00,      0.00,    32.897,      0.00
  4665.00,      0.00,   39.1481,      0.00
  4670.00,      0.00,   34.7834,      0.00
  4673.00,      0.00,   38.4377,      0.00
  4679.00,      0.00,   37.3801,      0.00
  4680.00,      0.00,   35.9673,      0.00
  4685.00,      0.00,   36.2041,      0.00
  4689.00,      0.00,   39.2665,      0.00
  4695.00,      0.00,   37.8537,      0.00
  4698.00,      0.00,   36.2041,      0.00
  4706.00,      0.00,   36.6777,      0.00
  4709.00,      0.00,   33.7258,      0.00
  4714.00,      0.00,    31.721,      0.00
  4721.00,      0.00,   33.3706,      0.00
  4723.00,      0.00,   30.1898,      0.00
  4731.00,      0.00,   30.3082,      0.00
  4737.00,      0.00,   31.1291,      0.00
  4741.00,      0.00,   27.1195,      0.00
  4744.00,      0.00,   29.8346,      0.00
  4749.00,      0.00,   28.6586,      0.00
  4756.00,      0.00,   28.0667,      0.00
  4760.00,      0.00,   30.6634,      0.00
  4764.00,      0.00,   27.4747,      0.00
  4770.00,      0.00,   27.9483,      0.00
  4773.00,      0.00,   26.4171,      0.00
  4779.00,      0.00,   29.2506,      0.00
  4785.00,      0.00,   27.1274,      0.00
  4789.00,      0.00,   25.7146,      0.00
  4792.00,      0.00,   26.8906,      0.00
  4796.00,      0.00,   23.9387,      0.00
  4806.00,      0.00,   24.4123,      0.00
  4809.00,      0.00,   22.7627,      0.00
  4815.00,      0.00,   25.9514,      0.00
  4822.00,      0.00,   24.0611,    0.8248
  4828.00,      0.00,   21.4683,      0.00
  4834.00,      0.00,   22.0603,      0.00
  4839.00,      0.00,   20.5212,      0.00
  4844.00,      0.00,   21.4683,      0.00
  4850.00,      0.00,   20.4107,      0.00
  4856.00,      0.00,   18.8716,      0.00
  4861.00,      0.00,    17.222,      0.00
  4868.00,      0.00,    14.278,      0.00
  4872.00,      0.00,   12.0365,      0.00
  4873.00,      0.00,   14.6332,      0.00
  4881.00,      0.00,   14.6332,      0.00
  4886.00,      0.00,   17.2299,      0.00
  4891.00,      0.00,   20.1739,      0.00
  4896.00,      0.00,   23.8282,      0.00
  4901.00,      0.00,   26.3066,      0.00
  4908.00,      0.00,     31.50,      0.00
  4911.00,      0.00,   28.3113,      0.00
  4917.00,      0.00,   30.0872,      0.00
  4919.00,      0.00,   33.3864,      0.00
  4926.00,      0.00,    29.732,      0.00
  4930.00,      0.00,   33.3864,      0.00
  4935.00,      0.00,   30.4424,      0.00
  4940.00,      0.00,   29.8504,      0.00
  4945.00,      0.00,   30.6792,      0.00
  4952.00,      0.00,   29.2585,      0.00
  4955.00,      0.00,   25.9593,      0.00
  4958.00,      0.00,   24.5465,      0.00
  4965.00,      0.00,   25.7225,      0.00
  4969.00,      0.00,   23.2442,      0.00
  4978.00,      0.00,   22.4233,      0.00
  4980.00,      0.00,   17.7035,      0.00
  4986.00,      0.00,   14.2859,      0.00
  4991.00,      0.00,    9.2109,      0.00
  4999.00,      0.00,    5.6749,      0.00
  5000.00,      0.00,    3.4334,      0.00
  5008.00,      0.00,    3.7885,      0.00
  5013.00,      0.00,     6.622,      0.00
  5017.00,      0.00,     8.982,      0.00
  5021.00,      0.00,   13.2283,      0.00
  5025.00,      0.00,   13.5755,      0.00
  5027.00,      0.00,   17.2378,      0.00
  5032.00,      0.00,   20.3002,      0.00
  5038.00,      0.00,   21.4841,      0.00
  5040.00,      0.00,   22.5417,      0.00
  5048.00,      0.00,   22.6601,      0.00
  5050.00,      0.00,   24.0808,      0.00
  5058.00,      0.00,   24.6728,      0.00
  5062.00,      0.00,   28.4455,      0.00
  5069.00,      0.00,   28.5639,      0.00
  5072.00,      0.00,   33.8678,      0.00
  5075.00,      0.00,    31.279,      0.00
  5083.00,      0.00,   31.1606,      0.00
  5086.00,      0.00,   32.9286,      0.00
  5089.00,      0.00,   34.3414,      0.00
  5097.00,      0.00,   37.6485,      0.00
  5103.00,      0.00,   34.9334,      0.00
  5107.00,      0.00,   32.5734,      0.00
  5111.00,      0.00,   28.9191,      0.00
  5118.00,      0.00,   30.4503,      0.00
  5121.00,      0.00,   26.6775,      0.00
  5124.00,      0.00,   29.3926,      0.00
  5133.00,      0.00,     20.90,      0.00
  5142.00,      0.00,   30.9238,      0.00
  5147.00,      0.00,   25.9751,      0.00
EndData:
