Comment:    Automatically converted from EXFOR at 2020-10-01,07:40:34
            by the IAEA-NDS EXFOR Web-Retrieval System,
            program X4toR33 ver-2020-05-11 (V.Zerkin).
            X4Title: "Resonance spectroscopy of 30Si nucleus in the
                      excitation energy range 14.27 to 15.02 MeV"
            X4Author: L.V.Namjoshi,  S.K.Gupta,  M.K.Mehta, S.S.Kerekatte
            EXFOR: D6019002    Created: 2009-11-05  Updated: 2018-06-29
            X4Reaction:12-MG-26(A,EL)12-MG-26,,DA; X4Points:772
            Converted from C.M. to Lab.: Sigma, Theta
            SigmaLab=SigmaCM/1.3803345
            ThetaLab=164.7 ThetaCM:167.0
            ENSDF:LevelEnergy=0.00
            Systematic uncertainty: ErrSys=5.0%
            AME2016: M1=4.002603254 M2=25.982592971 M3=4.002603254 M4=25.982592971

Version:      R33
X4Number:     D6019002 20180629
Source:       L.V.Namjoshi+(1976), Physical Review, Part C, Nuclear Physics, Vol.13, p.915
Reaction:     26Mg(a,a0)26Mg
Distribution: Energy
Sigfactors:   1.00, 0.05
Enfactors:    1.00, 0.00, 0.00, 0.00
Units:        mb
Composition:
Masses:       4.0, 26.0, 4.0, 26.0
Zeds:         2, 12, 2, 12
Qvalue:       0.0, 0.00, 0.00, 0.00, 0.00
Theta:        164.7
Data:
  4183.00,      0.00,   37.8459,      0.00
  4187.00,      0.00,   35.1437,      0.00
  4193.00,      0.00,   34.0642,      0.00
  4197.00,      0.00,   32.0067,      0.00
  4202.00,      0.00,   30.8186,      0.00
  4209.00,      0.00,    31.362,      0.00
  4215.00,      0.00,   28.9857,      0.00
  4219.00,      0.00,   28.1236,      0.00
  4231.00,      0.00,   29.9565,    1.6228
  4238.00,      0.00,   30.6085,      0.00
  4243.00,      0.00,   32.6587,      0.00
  4246.00,      0.00,   36.0058,      0.00
  4253.00,      0.00,   36.0058,      0.00
  4258.00,      0.00,   37.4112,      0.00
  4262.00,      0.00,   32.3327,      0.00
  4268.00,      0.00,   30.7172,      0.00
  4274.00,      0.00,   29.3117,      0.00
  4278.00,      0.00,   30.6085,      0.00
  4286.00,      0.00,   27.9063,      0.00
  4288.00,      0.00,   23.9072,      0.00
  4294.00,      0.00,   22.7191,      0.00
  4299.00,      0.00,   17.3146,      0.00
  4306.00,      0.00,   27.7976,      0.00
  4308.00,      0.00,   18.0753,      0.00
  4313.00,      0.00,   32.9848,      0.00
  4319.00,      0.00,   32.4414,      0.00
  4323.00,      0.00,   29.9565,      0.00
  4331.00,      0.00,   29.8478,      0.00
  4333.00,      0.00,   31.7966,      0.00
  4340.00,      0.00,   32.2241,      0.00
  4345.00,      0.00,   33.1949,      0.00
  4348.00,      0.00,   26.1748,      0.00
  4353.00,      0.00,   20.2342,      0.00
  4360.00,      0.00,   14.8297,      0.00
  4363.00,      0.00,   16.2352,      0.00
  4369.00,      0.00,   18.2927,      0.00
  4373.00,      0.00,   20.5602,      0.00
  4379.00,      0.00,    24.552,      0.00
  4385.00,      0.00,   23.1538,      0.00
  4389.00,      0.00,   20.1256,      0.00
  4394.00,      0.00,    17.858,      0.00
  4402.00,      0.00,   18.0753,      0.00
  4404.00,      0.00,   20.5602,      0.00
  4410.00,      0.00,   27.6889,      0.00
  4413.00,      0.00,   29.9565,      0.00
  4419.00,      0.00,   25.0954,      0.00
  4426.00,      0.00,   22.7191,      0.00
  4427.00,      0.00,   19.5895,      0.00
  4434.00,      0.00,   18.3941,      0.00
  4440.00,      0.00,   19.2634,      0.00
  4446.00,      0.00,   18.0753,      0.00
  4450.00,      0.00,   19.9082,      0.00
  4452.00,      0.00,   21.6397,      0.00
  4457.00,      0.00,   17.4233,      0.00
  4465.00,      0.00,   16.2352,      0.00
  4469.00,      0.00,   17.4233,      0.00
  4471.00,      0.00,   20.6689,      0.00
  4479.00,      0.00,   21.3137,      0.00
  4483.00,      0.00,   19.3721,      0.00
  4489.00,      0.00,   21.4223,      0.00
  4491.00,      0.00,    24.878,      0.00
  4496.00,      0.00,   23.9072,      0.00
  4503.00,      0.00,   24.2333,      0.00
  4507.00,      0.00,   23.2625,      0.00
  4514.00,      0.00,    21.531,      0.00
  4518.00,      0.00,    17.532,      0.00
  4524.00,      0.00,    14.511,      0.00
  4528.00,      0.00,   12.5622,      0.00
  4535.00,      0.00,    6.7303,      0.00
  4538.00,      0.00,      4.68,      0.00
  4545.00,      0.00,    4.8901,      0.00
  4548.00,      0.00,   10.6206,      0.00
  4554.00,      0.00,   12.5622,      0.00
  4560.00,      0.00,   17.1045,      0.00
  4564.00,      0.00,    18.184,      0.00
  4570.00,      0.00,   15.5904,      0.00
  4573.00,      0.00,   19.0461,      0.00
  4579.00,      0.00,   15.5904,    2.3762
  4583.00,      0.00,   12.1347,      0.00
  4589.00,      0.00,   19.1548,      0.00
  4594.00,      0.00,   27.5803,      0.00
  4596.00,      0.00,   29.0944,      0.00
  4605.00,      0.00,   29.0944,      0.00
  4608.00,      0.00,   28.4424,      0.00
  4615.00,      0.00,   24.4506,      0.00
  4618.00,      0.00,   25.4214,      0.00
  4622.00,      0.00,   28.3337,      0.00
  4626.00,      0.00,   26.1748,      0.00
  4635.00,      0.00,   24.4506,      0.00
  4639.00,      0.00,   27.4716,      0.00
  4643.00,      0.00,   32.6587,      0.00
  4646.00,      0.00,   35.2523,      0.00
  4652.00,      0.00,    38.056,      0.00
  4658.00,      0.00,   41.4103,      0.00
  4665.00,      0.00,   54.1608,      0.00
  4668.00,      0.00,   56.3197,      0.00
  4674.00,      0.00,   60.3187,      0.00
  4679.00,      0.00,   57.1818,      0.00
  4685.00,      0.00,   48.9736,      0.00
  4690.00,      0.00,   37.0852,      0.00
  4691.00,      0.00,   28.7684,      0.00
  4697.00,      0.00,   24.6607,      0.00
  4704.00,      0.00,   22.0671,      0.00
  4709.00,      0.00,   19.6909,      0.00
  4715.00,      0.00,   17.4233,      0.00
  4718.00,      0.00,   15.4818,      0.00
  4725.00,      0.00,   13.3229,      0.00
  4729.00,      0.00,   15.1557,      0.00
  4735.00,      0.00,   13.9676,      0.00
  4738.00,      0.00,   12.4535,      0.00
  4742.00,      0.00,   14.4023,      0.00
  4748.00,      0.00,   13.4243,      0.00
  4752.00,      0.00,   15.6991,      0.00
  4759.00,      0.00,   15.1557,      0.00
  4763.00,      0.00,    17.532,      0.00
  4769.00,      0.00,   17.9667,      0.00
  4773.00,      0.00,   16.3439,      0.00
  4780.00,      0.00,   16.2352,      0.00
  4783.00,      0.00,   17.4233,      0.00
  4789.00,      0.00,   16.9959,      0.00
  4793.00,      0.00,   15.8078,      0.00
  4799.00,      0.00,   16.8872,      0.00
  4805.00,      0.00,   17.3146,      0.00
  4809.00,      0.00,   15.1557,      0.00
  4814.00,      0.00,   16.7785,      0.00
  4817.00,      0.00,   15.2644,      0.00
  4825.00,      0.00,   15.6991,      0.00
  4831.00,      0.00,   15.0471,      0.00
  4834.00,      0.00,   12.8882,      0.00
  4839.00,      0.00,   14.9384,      0.00
  4846.00,      0.00,   14.0763,      0.00
  4848.00,      0.00,   15.0471,      0.00
  4851.00,      0.00,   12.5622,      0.00
  4864.00,      0.00,     3.702,      0.00
  4872.00,      0.00,    3.5933,      0.00
  4874.00,      0.00,    6.8389,      0.00
  4878.00,      0.00,    9.3238,      0.00
  4882.00,      0.00,   13.7503,      0.00
  4889.00,      0.00,   15.3731,      0.00
  4893.00,      0.00,   21.7484,      0.00
  4900.00,      0.00,   28.7684,      0.00
  4904.00,      0.00,   32.3327,      0.00
  4910.00,      0.00,    31.362,      0.00
  4916.00,      0.00,   33.6295,      0.00
  4920.00,      0.00,   36.5491,      0.00
  4923.00,      0.00,    24.878,      0.00
  4929.00,      0.00,   21.7484,      0.00
  4933.00,      0.00,   15.8078,      0.00
  4941.00,      0.00,   14.4023,      0.00
  4943.00,      0.00,   11.2654,      0.00
  4950.00,      0.00,    9.9686,      0.00
  4952.00,      0.00,    8.2444,      0.00
  4961.00,      0.00,    6.9476,      0.00
  4964.00,      0.00,     8.027,      0.00
  4973.00,      0.00,    8.5631,      0.00
  4974.00,      0.00,    6.7303,      0.00
  4978.00,      0.00,      4.68,      0.00
  4984.00,      0.00,    2.0865,      0.00
  4989.00,      0.00,    3.4847,      0.00
  4995.00,      0.00,    1.7604,      0.00
  4998.00,      0.00,     4.354,      0.00
  5005.00,      0.00,    9.9686,      0.00
  5009.00,      0.00,   12.5622,      0.00
  5016.00,      0.00,   17.1045,      0.00
  5020.00,      0.00,   23.3639,      0.00
  5024.00,      0.00,     25.53,      0.00
  5027.00,      0.00,   24.2333,      0.00
  5035.00,      0.00,   27.7976,      0.00
  5039.00,      0.00,   26.2835,      0.00
  5044.00,      0.00,   24.1246,      0.00
  5050.00,      0.00,   26.7182,      0.00
  5055.00,      0.00,    31.036,      0.00
  5061.00,      0.00,   32.5501,      0.00
  5065.00,      0.00,   30.8186,      0.00
  5071.00,      0.00,    31.362,      0.00
  5072.00,      0.00,   35.7884,      0.00
  5081.00,      0.00,   32.1154,      0.00
  5084.00,      0.00,   36.2231,      0.00
  5089.00,      0.00,   37.5199,      0.00
  5095.00,      0.00,    35.035,      0.00
  5099.00,      0.00,   27.2543,      0.00
  5105.00,      0.00,    17.858,      0.00
  5108.00,      0.00,   15.6991,      0.00
  5116.00,      0.00,   14.0763,      0.00
  5122.00,      0.00,   15.1557,      0.00
  5124.00,      0.00,   18.6114,      0.00
  5130.00,      0.00,   16.9959,      0.00
  5134.00,      0.00,    17.858,      0.00
  5141.00,      0.00,    17.206,      0.00
  5144.00,      0.00,   18.2927,      0.00
EndData:
