Comment:    Automatically converted from EXFOR at 2020-09-03,10:38:44
            by the IAEA-NDS EXFOR Web-Retrieval System,
            program X4toR33 ver-2020-05-11 (V.Zerkin).
            X4Title: "Study of the 9485, 9490, 9613 and 9670 keV excited
                      states in O-15"
            X4Author: M.Lambert,  M.Durand
            EXFOR: O0885002    Created: 2001-06-15  Updated: 2007-07-02
            X4Reaction:7-N-14(P,EL)7-N-14,,DA; X4Points:1146
            Converted from C.M. to Lab.: Sigma, Theta
            SigmaLab=SigmaCM/1.1440444
            ThetaLab=155.2 ThetaCM:156.9
            ENSDF:LevelEnergy=0.00
            Systematic uncertainty: ErrSys=6.0%
            AME2016: M1=1.007825032 M2=14.003074004 M3=1.007825032 M4=14.003074004

Version:      R33
X4Number:     O0885002 20070702
Source:       M.Lambert+(1967), Jour. Physics Letters,Section B, Vol.24, p.287
Reaction:     14N(p,p0)14N
Distribution: Energy
Sigfactors:   1.00, 0.06
Enfactors:    1.00, 0.00, 0.00, 0.00
Units:        mb
Composition:
Masses:       1.0, 14.0, 1.0, 14.0
Zeds:         1, 7, 1, 7
Qvalue:       0.0, 0.00, 0.00, 0.00, 0.00
Theta:        155.2
Data:
  1856.80,      1.00,   75.5976,      0.00
  1861.60,      1.00,   77.9122,      0.00
  1869.50,      1.00,   78.4978,      0.00
  1872.40,      1.00,    76.192,      0.00
  1880.30,      1.00,   74.4691,      0.00
  1886.20,      1.00,   73.3215,      0.00
  1891.10,      1.00,    76.213,      0.00
  1895.00,      1.00,   73.3311,      0.00
  1897.90,      1.00,   76.2199,      0.00
  1903.80,      1.00,   75.6492,      0.00
  1910.70,      1.00,   77.9655,      0.00
  1915.60,      1.00,   76.8169,      0.00
  1920.50,      1.00,   74.5128,      0.00
  1928.40,      1.00,   76.2532,      0.00
  1934.30,      1.00,   73.9508,      0.00
  1939.10,      1.00,   77.4192,      0.00
  1947.00,      1.00,   75.6964,      0.00
  1952.90,      1.00,   77.4349,      0.00
  1957.80,      1.00,   76.2855,      0.00
  1959.80,      1.00,   73.9788,      0.00
  1965.60,      1.00,   75.1396,      0.00
  1969.60,      1.00,   76.2986,      0.00
  1976.40,      1.00,   75.7287,      0.00
  1978.40,      1.00,    73.422,      0.00
  1981.30,      1.00,   76.3109,      0.00
  1989.20,      1.00,   75.1658,      0.00
  1993.10,      1.00,   73.4386,      0.00
  1996.00,      1.00,   75.7506,      0.00
  1999.00,      1.00,   73.4447,      0.00
  2003.90,      1.00,   74.6046,      0.00
  2006.80,      1.00,   72.8757,      0.00
  2008.80,      1.00,   76.3414,      0.00
  2013.70,      1.00,   73.4604,      0.00
  2017.60,      1.00,   76.3511,      0.00
  2020.60,      1.00,   74.0452,      0.00
  2027.40,      1.00,   76.9385,      0.00
  2030.40,      1.00,   74.6335,      0.00
  2034.30,      1.00,   76.3694,      0.00
  2038.20,      1.00,   74.6422,      0.00
  2041.20,      1.00,   76.3764,      0.00
  2050.00,      1.00,   75.8091,      0.00
  2052.90,      1.00,   79.2758,      0.00
  2057.80,      1.00,   76.3948,      0.00
  2061.80,      1.00,   75.8222,      0.00
  2065.70,      1.00,   77.5582,      0.00
  2069.60,      1.00,   75.2532,      0.00
  2074.50,      1.00,   75.8362,      0.00
  2080.40,      1.00,   76.4192,      0.00
  2084.30,      1.00,   75.2698,      0.00
  2089.20,      1.00,   77.0066,      0.00
  2093.20,      1.00,   75.8563,      0.00
  2099.10,      1.00,   75.8624,      0.00
  2102.00,      1.00,   81.0607,      0.00
  2103.90,      1.00,    78.177,      0.00
  2111.80,      1.00,   78.1858,      0.00
  2121.60,      1.00,   79.9278,      0.00
  2124.50,      1.00,    77.622,      0.00
  2128.50,      1.00,   80.5126,      0.00
  2130.40,      1.00,    77.629,      0.00
  2134.30,      1.00,    83.405,      0.00
  2136.30,      1.00,   79.9436,      0.00
  2140.20,      1.00,   78.2164,      0.00
  2143.20,      1.00,   80.5283,      0.00
  2146.10,      1.00,   82.8403,      0.00
  2149.10,      1.00,   79.9576,      0.00
  2154.00,      1.00,   81.1175,      0.00
  2162.80,      1.00,   81.1271,      0.00
  2167.70,      1.00,   81.7092,      0.00
  2173.60,      1.00,   81.1385,      0.00
  2177.50,      1.00,   81.1428,      0.00
  2183.40,      1.00,   81.7267,      0.00
  2186.30,      1.00,   85.1934,      0.00
  2191.20,      1.00,   82.8893,      0.00
  2199.10,      1.00,   83.4758,      0.00
  2206.00,      1.00,   83.4828,      0.00
  2209.90,      1.00,   84.6418,      0.00
  2212.80,      1.00,   88.1085,      0.00
  2216.70,      1.00,   85.2266,      0.00
  2223.60,      1.00,   85.8114,      0.00
  2226.50,      1.00,   89.8566,      0.00
  2230.50,      1.00,   86.3961,      0.00
  2234.40,      1.00,   90.4423,      0.00
  2241.30,      1.00,   88.1347,      0.00
  2246.20,      1.00,    90.451,      0.00
  2253.00,      1.00,   92.1905,      0.00
  2259.90,      1.00,   92.7761,      0.00
  2263.80,      1.00,   95.0925,      0.00
  2267.70,      1.00,   92.7849,      0.00
  2271.60,      1.00,   96.8319,      0.00
  2276.50,      1.00,   98.5626,      0.00
  2279.50,      1.00,   96.8406,      0.00
  2285.40,      1.00,   97.4263,      0.00
  2290.30,      1.00,  100.8877,      0.00
  2294.20,      1.00,  102.0502,      0.00
  2305.90,      1.00,  105.5291,      0.00
  2310.90,      1.00,  103.2215,      0.00
  2314.80,      1.00,   104.961,      0.00
  2319.70,      1.00,  106.6917,      0.00
  2325.60,      1.00,  104.3928,      0.00
  2327.50,      1.00,  106.1235,      0.00
  2330.50,      1.00,  102.6621,      0.00
  2333.40,      1.00,  100.9401,      0.00
  2335.40,      1.00,  103.8246,      0.00
  2336.30,      1.00,   107.286,      0.00
  2338.30,      1.00,  125.1874,      0.00
  2346.90,      1.00,  178.2973,      0.00
  2349.90,      1.00,   158.097,      0.00
  2351.90,      1.00,   146.559,      0.00
  2355.90,      1.00,  139.0593,      0.00
  2356.90,      1.00,  130.9739,      0.00
  2364.70,      1.00,  129.8289,      0.00
  2369.60,      1.00,  129.2607,      0.00
  2370.60,      1.00,  126.9531,      0.00
  2375.50,      1.00,  125.2224,      0.00
  2379.50,      1.00,  124.0773,      0.00
  2385.30,      1.00,   124.663,      0.00
  2387.30,      1.00,  122.9323,      0.00
  2389.30,      1.00,  120.6247,      0.00
  2393.20,      1.00,  123.5179,      0.00
  2399.10,      1.00,  119.4796,    2.3076
  2406.90,      1.00,  118.9115,      0.00
  2412.80,      1.00,  116.0357,      0.00
  2418.70,      1.00,  111.4205,      0.00
  2422.70,      1.00,   112.583,      0.00
  2428.60,      1.00,  108.5447,      0.00
  2431.50,      1.00,  105.6602,      0.00
  2437.40,      1.00,  105.0921,      0.00
  2440.30,      1.00,  102.7845,      0.00
  2445.20,      1.00,  103.3701,      0.00
  2445.30,      1.00,   97.6011,      0.00
  2447.20,      1.00,  105.6777,      0.00
  2448.20,      1.00,   99.3318,      0.00
  2453.10,      1.00,   96.4473,      0.00
  2456.10,      1.00,   91.8408,      0.00
  2460.00,      1.00,   95.8791,      0.00
  2462.00,      1.00,   91.8408,      0.00
  2462.90,      1.00,   88.9563,      0.00
  2468.90,      1.00,   77.9987,      0.00
  2473.80,      1.00,   80.3124,      0.00
  2480.60,      1.00,   99.9437,      0.00
  2484.50,      1.00,  112.6442,      0.00
  2488.40,      1.00,  117.8451,      0.00
  2490.30,      1.00,  113.2299,      0.00
  2495.30,      1.00,  109.1916,      0.00
  2498.20,      1.00,  106.8927,      0.00
  2504.10,      1.00,  103.4313,      0.00
  2507.00,      1.00,  105.7476,      0.00
  2511.90,      1.00,  106.3245,      0.00
  2512.00,      1.00,    103.44,      0.00
  2517.80,      1.00,  100.5643,      0.00
  2519.80,      1.00,  103.4488,      0.00
  2524.70,      1.00,   99.4192,      0.00
  2530.60,      1.00,    94.804,      0.00
  2535.50,      1.00,   95.3897,      0.00
  2537.50,      1.00,   90.1975,      0.00
  2540.40,      1.00,  101.7443,      0.00
  2544.30,      1.00,    97.706,      0.00
  2545.30,      1.00,  112.1373,      0.00
  2551.20,      1.00,   95.4071,      0.00
  2553.20,      1.00,   97.1378,      0.00
  2557.10,      1.00,   94.2533,      0.00
  2561.00,      1.00,   90.8007,      0.00
  2565.00,      1.00,   93.6852,      0.00
  2576.70,      1.00,   90.2412,      0.00
  2582.60,      1.00,   89.6643,      0.00
  2586.50,      1.00,   90.8269,      0.00
  2590.50,      1.00,   86.2117,      0.00
  2597.40,      1.00,   86.2196,      0.00
  2601.30,      1.00,   87.9511,      0.00
  2609.10,      1.00,   88.5368,      0.00
  2613.00,      1.00,   86.2362,      0.00
  2614.00,      1.00,   90.2762,      0.00
  2618.00,      1.00,   85.6645,      0.00
  2620.90,      1.00,   83.3595,      0.00
  2624.80,      1.00,   84.5177,      0.00
  2627.80,      1.00,    81.058,      0.00
  2633.70,      1.00,   83.3735,      0.00
  2637.60,      1.00,   82.2232,    1.7316
  2645.40,      1.00,   81.0773,      0.00
  2651.30,      1.00,   78.7749,      0.00
  2655.20,      1.00,   80.5109,      0.00
  2662.10,      1.00,   78.7863,      0.00
  2671.90,      1.00,   80.5292,      0.00
  2677.80,      1.00,   79.9584,      0.00
  2682.70,      1.00,    78.809,      0.00
  2685.70,      1.00,   82.2757,      0.00
  2689.60,      1.00,   79.9707,      0.00
  2694.50,      1.00,   78.2452,      0.00
  2699.40,      1.00,   81.1358,      0.00
  2702.30,      1.00,   78.2531,      0.00
  2707.20,      1.00,   81.1446,      0.00
  2711.20,      1.00,   78.2627,      0.00
  2714.10,      1.00,   75.9577,      0.00
  2719.00,      1.00,   77.1176,      0.00
  2726.90,      1.00,   77.7033,      0.00
  2731.80,      1.00,     75.40,      0.00
  2739.60,      1.00,   76.5626,      0.00
  2743.50,      1.00,   77.7216,      0.00
  2746.50,      1.00,    78.302,      0.00
  2748.50,      1.00,   75.4175,      0.00
  2751.40,      1.00,   73.1125,      0.00
  2763.20,      1.00,    76.011,      0.00
  2772.00,      1.00,   74.2891,      0.00
  2779.90,      1.00,   73.7209,      0.00
  2786.70,      1.00,   72.5741,      0.00
  2791.60,      1.00,   72.0016,      0.00
  2794.60,      1.00,   74.3135,      0.00
  2797.50,      1.00,   71.4308,      0.00
  2800.50,      1.00,   74.3205,      0.00
  2803.40,      1.00,   71.4378,      0.00
  2808.30,      1.00,   74.3293,      0.00
  2810.30,      1.00,   72.0226,      0.00
  2815.20,      1.00,   73.7594,      0.00
  2817.10,      1.00,   70.8757,      0.00
  2819.10,      1.00,   72.6091,      0.00
  2822.00,      1.00,    70.881,      0.00
  2826.00,      1.00,   73.1938,      0.00
  2827.90,      1.00,   70.3102,      0.00
  2834.80,      1.00,   72.0488,      0.00
  2836.80,      1.00,   69.7421,      0.00
  2844.60,      1.00,   71.4824,      0.00
  2849.50,      1.00,    69.756,      0.00
  2860.30,      1.00,    70.923,      0.00
  2865.20,      1.00,   69.1966,      0.00
  2868.10,      1.00,   72.0855,      0.00
  2872.10,      1.00,   69.7814,      0.00
  2878.00,      1.00,   71.5191,      0.00
  2883.80,      1.00,   70.3714,      0.00
  2887.80,      1.00,   73.2611,      0.00
  2893.70,      1.00,   70.9588,      0.00
  2899.50,      1.00,    70.388,      0.00
  2904.40,      1.00,   69.8163,      0.00
  2911.30,      1.00,    66.938,      0.00
  2914.30,      1.00,   69.2499,      0.00
  2918.20,      1.00,   71.5628,      0.00
  2920.20,      1.00,   67.5245,      0.00
  2928.00,      1.00,   66.9563,      0.00
  2933.90,      1.00,   67.5402,      0.00
  2942.70,      1.00,   66.3951,      0.00
  2943.70,      1.00,   69.8592,      0.00
  2949.60,      1.00,    66.403,      0.00
  2956.40,      1.00,     66.41,      0.00
  2963.30,      1.00,   67.5717,      0.00
  2966.30,      1.00,   64.6889,      0.00
  2974.10,      1.00,   65.8523,      0.00
  2978.00,      1.00,   65.2789,      0.00
  2979.00,      1.00,   70.4754,      0.00
  2982.90,      1.00,   67.0166,      0.00
  2990.80,      1.00,   66.4476,      0.00
  2994.70,      1.00,   67.0289,      0.00
  3002.60,      1.00,   67.0376,      0.00
EndData:
