Comment: Data were digitized. Energy digitizing error is 1.42 keV
         data digitizing error is 6.645 (relative units). 
         Differential cross-sections are given in relative units (number
         of counts per 175 microC). 
         
Version: R33
Source: C.Van Der Leun et al. Physica v.30 (1964) 333
Name: Elena Kamskaya 
Address1: All-Russia Scientific Research Institute of Experimental Physics
Address2: 607190, Mira, 37, Sarov, Nizhni Novgorod reg., Russia
Address3: tel: (831-30) 2-79-06   fax:( 831-30) 4-55-69
Address4: e-mail: kamskaya@expd.vniief.ru
Serial Number: 
SubFile: 
X4Number: F0924002
Reaction: 20Ne(p,g)21Na
Distribution: Energy
Composition: 
Masses:    1.000,   20.000,    0.000,   21.000
Zeds: 1, 10, 0, 11
Qvalue:      2431.40,      0.00,      0.00,      0.00,      0.00
Theta:  55.00
Sigfactors: 1.00, 0.00 
Enfactors: 1000.00, 0.00, 0.00, 0.00
Units: ru
Data:
     1.1206         0.     10.799         0.
     1.1283         0.      19.25         0.
     1.1332         0.     3.9177         0.
     1.1399         0.      4.458         0.
     1.1437         0.     20.456         0.
     1.1476         0.      5.061         0.
     1.1544         0.     2.2595         0.
     1.1562         0.     6.0409         0.
     1.1598         0. 1.9604E+03         0.
     1.1645         0. 1.2622E+03         0.
     1.1665         0.     398.97         0.
     1.1697         0.     140.21         0.
     1.1727         0.     30.565         0.
     1.1785         0.     8.2232         0.
     1.1843         0.      7.771         0.
     1.1901         0.     7.3187         0.
     1.1968         0.     16.753         0.
     1.2036         0.      21.96         0.
     1.2104         0.     9.9604         0.
     1.2143         0.     21.131         0.
       1.22         0.     10.714         0.
     1.2297         0.     19.925         0.
     1.2355         0.     19.768         0.
     1.2403         0.     20.145         0.
     1.2432         0.     18.869         0.
     1.2499         0.     36.595         0.
     1.2557         0.     13.503         0.
     1.2635         0.     1.5903         0.
     1.2703         0.     16.759         0.
      1.277         0.     16.231         0.
     1.2799         0.     23.235         0.
     1.2857         0.    0.14335         0.
     1.2914         0.     31.988         0.
     1.2972         0.      32.44         0.
     1.3021         0.     14.272         0.
     1.3098         0.     13.669         0.
     1.3146         0.     33.797         0.
     1.3214         0.     2.9322         0.
     1.3252         0.     42.474         0.
      1.332         0.     11.609         0.
     1.3358         0.     35.455         0.
     1.3407         0.     20.136         0.
     1.3455         0.     4.8166         0.
     1.3513         0.     5.2688         0.
     1.3552         0.     13.418         0.
       1.36         0.     13.795         0.
     1.3657         0.     61.336         0.
     1.3706         0.     46.017         0.
     1.3763         0.     124.95         0.
     1.3821         0.      141.1         0.
     1.3868         0.     172.87         0.
     1.3898         0.     118.16         0.
     1.3966         0.     126.53         0.
     1.4023         0.     166.23         0.
     1.4082         0.     103.89         0.
     1.4111         0.     104.12         0.
      1.415         0.     73.029         0.
     1.4217         0.     73.556         0.
     1.4266         0.     26.844         0.
     1.4313         0.     137.09         0.
     1.4362         0.     106.08         0.
     1.4378         0.     365.22         0.
     1.4409         0.     216.33         0.
     1.4458         0.     91.137         0.
     1.4526         0.     91.664         0.
     1.4574         0.     99.889         0.
     1.4661         0.     77.023         0.
     1.4709         0.     85.248         0.
     1.4767         0.     109.25         0.
     1.4816         0.     78.229         0.
     1.4855         0.     54.987         0.
     1.4932         0.     79.134         0.
     1.4999         0.     79.661         0.
     1.5066         0.     135.13         0.
     1.5114         0.      135.5         0.
     1.5154         0.     57.323         0.
     1.5212         0.     73.472         0.
     1.5269         0.     97.468         0.
     1.5328         0.      58.68         0.
     1.5356         0.     90.298         0.
     1.5404         0.     114.22         0.
     1.5472         0.     99.051         0.
      1.552         0.     122.97         0.
     1.5568         0.      115.5         0.
     1.5627         0.     61.016         0.
     1.5665         0.      92.71         0.
     1.5703         0.     108.71         0.
     1.5761         0.     109.16         0.
     1.5838         0.      164.7         0.
     1.5868         0.     70.749         0.
     1.5926         0.     94.746         0.
     1.5974         0.     87.274         0.
      1.601         0.      61.33         0.
     1.6065         0.     77.342         0.
     1.6142         0.      93.52         0.
     1.6207         0.     164.21         0.
      1.625         0.     195.74         0.
     1.6306         0.     141.56         0.
     1.6383         0.     142.14         0.
     1.6449         0.     189.43         0.
     1.6481         0.     228.68         0.
     1.6548         0.     166.78         0.
     1.6614         0.     198.47         0.
      1.668         0.     152.17         0.
     1.6711         0.     300.61         0.
     1.6778         0.     246.51         0.
     1.6855         0.     262.69         0.
     1.6943         0.     263.35         0.
     1.6976         0.      263.6         0.
     1.7065         0.     217.46         0.
     1.7131         0.     217.96         0.
     1.7176         0.      140.3         0.
     1.7231         0.     187.51         0.
     1.7285         0.     250.32         0.
     1.7339         0.     297.53         0.
     1.7394         0.     282.34         0.
     1.7461         0.     220.44         0.
     1.7527         0.     244.34         0.
     1.7572         0.     221.27         0.
     1.7626         0.     260.68         0.
     1.7704         0.     175.47         0.
     1.7747         0.     300.59         0.
     1.7814         0.     238.69         0.
     1.7891         0.     215.87         0.
     1.7923         0.     278.52         0.
     1.8001         0.      216.7         0.
       1.81         0.     264.24         0.
     1.8144         0.     280.17         0.
     1.8232         0.     280.83         0.
     1.8298         0.     281.33         0.
     1.8353         0.     281.74         0.
     1.8384         0.     391.18         0.
     1.8427         0.     446.11         0.
     1.8484         0.     321.73         0.
     1.8539         0.     361.14         0.
     1.8628         0.     315.01         0.
     1.8659         0.     455.65         0.
     1.8736         0.     409.43         0.
     1.8802         0.     409.93         0.
     1.8868         0.     449.42         0.
     1.8913         0.     379.56         0.
     1.8968         0.     387.77         0.
        1.9         0.     466.01         0.
     1.9078         0.      419.8         0.
     1.9132         0.     467.01         0.
     1.9188         0.     436.22         0.
     1.9242         0.     491.23         0.
     1.9309         0.     452.73         0.
     1.9351         0.     546.66         0.
     1.9428         0.     570.63         0.
      1.947         0.     687.96         0.
     1.9482         0.      766.2         0.
     1.9493         0. 1.3434E+03         0.
      1.953         0. 2.6151E+03         0.
     1.9573         0. 1.9446E+03         0.
     1.9627         0. 1.2274E+03         0.
     1.9633         0.     876.38         0.
     1.9712         0.     728.77         0.
     1.9735         0.     666.54         0.
     1.9768         0.      635.6         0.
     1.9857         0.     597.26         0.
     1.9912         0.     628.87         0.
     1.9978         0.     629.37         0.
     2.0066         0.     653.43         0.
      2.012         0.     669.44         0.
     2.0186         0.     701.14         0.
     2.0263         0.     693.92         0.
     2.0317         0.     764.52         0.
     2.0384         0.     694.83         0.
      2.045         0.     703.12         0.
     2.0527         0.      719.3         0.
     2.0581         0.     789.91         0.
     2.0637         0.     735.73         0.
     2.0692         0.     767.34         0.
     2.0737         0.     720.87         0.
     2.0814         0.     721.45         0.
     2.0891         0.     729.83         0.
     2.0956         0.     761.53         0.
     2.1022         0.     769.82         0.
     2.1055         0.     809.07         0.
     2.1121         0.     809.56         0.
     2.1207         0.     966.21         0.
     2.1249         0. 1.0757E+03         0.
     2.1281         0. 1.1150E+03         0.
     2.1326         0. 1.0607E+03         0.
     2.1382         0. 1.0065E+03         0.
     2.1406         0.     913.11         0.
      2.145         0.     874.44         0.
     2.1495         0.     835.78         0.
     2.1594         0.     828.72         0.
     2.1638         0.     829.05         0.
     2.1737         0.      853.2         0.
     2.1792         0.     838.01         0.
     2.1934         0.     917.08         0.
     2.2088         0.     926.04         0.
     2.2242         0.      942.8         0.
     2.2386         0.     912.67         0.
     2.2539         0.     976.23         0.
EndData:
